#klen kx ky kz bands(eV)
0 0.0000 0.0000 0.0000      -3.0644  15.3767  15.3767  15.3767  20.3091  20.3091  20.3091  21.2926
0.05 0.0500 0.0000 0.0000      -3.0401  15.2418  15.2418  15.3131  20.0109  20.0109  20.1868  20.3415
0.1 0.1000 0.0000 0.0000      -2.9674  14.8539  14.8539  15.1397  18.9931  19.6436  19.6436  20.4386
0.15 0.1500 0.0000 0.0000      -2.8459  14.2675  14.2675  14.8968  17.8604  19.4653  19.4653  20.6005
0.2 0.2000 0.0000 0.0000      -2.6755  13.5577  13.5577  14.6200  16.7915  19.4700  19.4700  20.8271
0.25 0.2500 0.0000 0.0000      -2.4558  12.7947  12.7947  14.3449  15.7869  19.6185  19.6185  21.1184
0.3 0.3000 0.0000 0.0000      -2.1863  12.0210  12.0210  14.0882  14.8469  19.8784  19.8784  21.4743
0.35 0.3500 0.0000 0.0000      -1.8666  11.2654  11.2654  13.8619  13.9716  20.2316  20.2316  21.8950
0.4 0.4000 0.0000 0.0000      -1.4960  10.5438  10.5438  13.1610  13.6712  20.6662  20.6662  22.3803
0.45 0.4500 0.0000 0.0000      -1.0740   9.8655   9.8655  12.4152  13.5143  21.1753  21.1753  22.9302
0.5 0.5000 0.0000 0.0000      -0.5998   9.2373   9.2373  11.7342  13.3908  21.7550  21.7550  21.8632
0.55 0.5500 0.0000 0.0000      -0.0731   8.6628   8.6628  11.1180  13.2906  20.3144  22.4016  22.4016
0.6 0.6000 0.0000 0.0000       0.5067   8.1446   8.1446  10.5666  13.2012  18.8041  23.1131  23.1131
0.65 0.6500 0.0000 0.0000       1.1397   7.6848   7.6848  10.0801  13.0937  17.3780  23.8872  23.8872
0.7 0.7000 0.0000 0.0000       1.8253   7.2840   7.2840   9.6585  12.9080  16.1023  24.7209  24.7209
0.75 0.7500 0.0000 0.0000       2.5624   6.9441   6.9441   9.3017  12.5194  15.1075  25.6110  25.6110
0.8 0.8000 0.0000 0.0000       3.3471   6.6653   6.6653   9.0098  11.8004  14.5209  26.5507  26.5507
0.85 0.8500 0.0000 0.0000       4.1708   6.4480   6.4480   8.7827  10.8381  14.2606  27.5265  27.5265
0.9 0.9000 0.0000 0.0000       5.0091   6.2926   6.2926   8.6206   9.8227  14.1563  28.5048  28.5048
0.95 0.9500 0.0000 0.0000       5.7799   6.1993   6.1993   8.5233   8.9243  14.1167  29.3798  29.3798
1 1.0000 0.0000 0.0000       6.1696   6.1696   6.1696   8.4909   8.4909  14.1071  29.8082  29.8082
1.07071 0.9500 0.0500 0.0000       5.6590   5.9809   6.2304   8.7685   9.1277  14.1259  28.9067  28.9683
1.14142 0.9000 0.1000 0.0000       4.7593   5.5859   6.4168   9.4244  10.4103  14.1898  27.0023  27.5224
1.21213 0.8500 0.1500 0.0000       3.8702   5.1689   6.7265  10.2370  11.9371  14.3201  24.9292  26.1027
1.28284 0.8000 0.2000 0.0000       3.0720   4.7992   7.1578  11.0613  13.6270  14.5673  22.9047  24.8544
1.35355 0.7500 0.2500 0.0000       2.3862   4.4963   7.7075  11.7564  15.0114  15.4575  20.9846  23.8436
1.42426 0.7000 0.3000 0.0000       1.8206   4.2627   8.3683  12.2152  15.6899  17.4183  19.1925  23.1290
1.49497 0.6500 0.3500 0.0000       1.3787   4.0933   9.1258  12.4509  16.4892  17.5509  19.5018  22.7816
1.56569 0.6000 0.4000 0.0000       1.0622   3.9808   9.9432  12.5500  16.1004  17.1907  21.6973  22.8639
1.6364 0.5500 0.4500 0.0000       0.8721   3.9171  10.7086  12.5833  14.9553  17.6223  23.2788  23.9733
1.70711 0.5000 0.5000 0.0000       0.8087   3.8966  11.0797  12.5897  14.4572  17.7591  23.5552  25.7986
1.77782 0.4500 0.4500 0.0000       0.5247   4.2971  11.1394  12.6420  14.5218  17.7311  23.2242  25.7751
1.84853 0.4000 0.4000 0.0000      -0.0764   5.2463  11.3179  12.7957  14.7154  17.6581  22.5260  25.6245
1.91924 0.3500 0.3500 0.0000      -0.7269   6.4735  11.6136  13.0477  15.0379  17.5682  21.7844  25.1959
1.98995 0.3000 0.3000 0.0000      -1.3304   7.8738  12.0230  13.3867  15.4891  17.4970  21.1218  24.4685
2.06066 0.2500 0.2500 0.0000      -1.8551   9.4010  12.5399  13.7949  16.0683  17.4833  20.5931  23.5908
2.13137 0.2000 0.2000 0.0000      -2.2891  11.0107  13.1505  14.2413  16.7744  17.5689  20.2391  22.7043
2.20208 0.1500 0.1500 0.0000      -2.6280  12.6265  13.8328  14.6808  17.6047  17.8208  20.1062  21.9036
2.27279 0.1000 0.1000 0.0000      -2.8704  14.0744  14.5324  15.0504  18.3762  18.5512  20.2441  21.2610
2.3435 0.0500 0.0500 0.0000      -3.0159  15.0526  15.1247  15.2932  19.4287  19.5786  20.6867  20.6875
2.41421 0.0000 0.0000 0.0000      -3.0644  15.3767  15.3767  15.3767  20.3091  20.3091  20.3091  21.2926
2.50082 0.0500 0.0500 0.0500      -2.9917  14.8785  15.1306  15.1306  19.2027  19.2027  20.9382  20.9382
2.58742 0.1000 0.1000 0.1000      -2.7736  13.8538  14.2090  14.2090  18.2944  18.2944  21.1998  21.1998
2.67402 0.1500 0.1500 0.1500      -2.4103  12.7075  12.7075  12.7771  18.2407  18.2407  21.6784  21.6784
2.76062 0.2000 0.2000 0.2000      -1.9020  11.0588  11.0588  11.8058  18.6691  18.6691  22.3539  22.3539
2.84723 0.2500 0.2500 0.2500      -1.2490   9.4763   9.4763  10.9858  19.3799  19.3799  23.2233  23.2233
2.93383 0.3000 0.3000 0.3000      -0.4530   8.0315   8.0315  10.3228  20.2937  20.2937  24.2842  24.2842
3.02043 0.3500 0.3500 0.3500       0.4835   6.7525   6.7525   9.8099  21.3678  21.3678  25.5337  25.5337
3.10703 0.4000 0.4000 0.4000       1.5533   5.6508   5.6508   9.4377  22.5412  22.5412  26.0245  26.9622
3.19364 0.4500 0.4500 0.4500       2.7399   4.7331   4.7331   9.1994  23.7020  23.7020  25.5100  28.5217
3.28024 0.5000 0.5000 0.5000       4.0017   4.0017   4.0017   9.1085  24.5755  24.5755  24.5755  29.5882
3.36684 0.5500 0.4500 0.4500       3.4597   3.4597   5.2346   9.2399  23.2522  24.6229  24.6229  28.1177
3.45344 0.6000 0.4000 0.4000       3.1069   3.1069   6.2092   9.7776  21.8254  23.1709  23.1709  27.0255
3.54005 0.6500 0.3500 0.3500       2.9437   2.9437   6.7149  10.8649  20.5812  20.8695  20.8695  26.7860
3.62665 0.7000 0.3000 0.3000       2.9698   2.9698   6.8475  12.2678  18.4895  18.4895  19.7689  26.8423
3.71325 0.7500 0.2500 0.2500       3.1835   3.1835   6.7904  13.5034  16.2238  16.2238  19.7256  27.0827
3.79985 0.8000 0.2000 0.2000       3.5815   3.5815   6.6462  14.1260  14.1260  14.1428  20.7958  27.4900
3.88646 0.8500 0.1500 0.1500       4.1560   4.1560   6.4735  12.2209  12.2209  14.2659  22.8303  28.0511
3.97306 0.9000 0.1000 0.1000       4.8858   4.8858   6.3157  10.5375  10.5375  14.2053  25.4110  28.7348
4.05966 0.9500 0.0500 0.0500       5.6904   5.6904   6.2068   9.1599   9.1599  14.1342  28.1568  29.4360
4.14626 1.0000 0.0000 0.0000       6.1696   6.1696   6.1696   8.4909   8.4909  14.1071  29.8082  29.8082
