# E (eV)   ldos(E)   pdos(E)    pdos(E)    pdos(E)    pdos(E)    pdos(E)    pdos(E)    pdos(E)   
  -4.265  0.249E-11  0.593E-12  0.363E-12  0.363E-12  0.224E-12  0.411E-13  0.455E-12  0.455E-12
  -4.245  0.345E-11  0.816E-12  0.504E-12  0.504E-12  0.316E-12  0.581E-13  0.629E-12  0.629E-12
  -4.225  0.476E-11  0.112E-11  0.696E-12  0.696E-12  0.444E-12  0.818E-13  0.865E-12  0.865E-12
  -4.205  0.654E-11  0.152E-11  0.958E-12  0.958E-12  0.620E-12  0.115E-12  0.118E-11  0.118E-11
  -4.185  0.894E-11  0.207E-11  0.131E-11  0.131E-11  0.862E-12  0.160E-12  0.161E-11  0.161E-11
  -4.165  0.122E-10  0.279E-11  0.179E-11  0.179E-11  0.119E-11  0.223E-12  0.219E-11  0.219E-11
  -4.145  0.165E-10  0.376E-11  0.244E-11  0.244E-11  0.165E-11  0.309E-12  0.296E-11  0.296E-11
  -4.125  0.223E-10  0.503E-11  0.330E-11  0.330E-11  0.226E-11  0.427E-12  0.399E-11  0.399E-11
  -4.105  0.300E-10  0.671E-11  0.445E-11  0.445E-11  0.309E-11  0.587E-12  0.535E-11  0.535E-11
  -4.085  0.402E-10  0.891E-11  0.598E-11  0.598E-11  0.421E-11  0.803E-12  0.715E-11  0.715E-11
  -4.065  0.536E-10  0.118E-10  0.799E-11  0.799E-11  0.572E-11  0.110E-11  0.951E-11  0.951E-11
  -4.045  0.712E-10  0.155E-10  0.106E-10  0.106E-10  0.773E-11  0.149E-11  0.126E-10  0.126E-10
  -4.025  0.942E-10  0.203E-10  0.141E-10  0.141E-10  0.104E-10  0.201E-11  0.166E-10  0.166E-10
  -4.005  0.124E-09  0.265E-10  0.187E-10  0.187E-10  0.139E-10  0.271E-11  0.218E-10  0.218E-10
  -3.985  0.163E-09  0.345E-10  0.246E-10  0.246E-10  0.186E-10  0.364E-11  0.285E-10  0.285E-10
  -3.965  0.213E-09  0.446E-10  0.322E-10  0.322E-10  0.247E-10  0.486E-11  0.372E-10  0.372E-10
  -3.945  0.277E-09  0.575E-10  0.420E-10  0.420E-10  0.327E-10  0.648E-11  0.482E-10  0.482E-10
  -3.925  0.359E-09  0.738E-10  0.546E-10  0.546E-10  0.431E-10  0.859E-11  0.623E-10  0.623E-10
  -3.905  0.464E-09  0.944E-10  0.708E-10  0.708E-10  0.566E-10  0.113E-10  0.802E-10  0.802E-10
  -3.885  0.597E-09  0.120E-09  0.913E-10  0.913E-10  0.740E-10  0.149E-10  0.103E-09  0.103E-09
  -3.865  0.766E-09  0.152E-09  0.117E-09  0.117E-09  0.964E-10  0.196E-10  0.131E-09  0.131E-09
  -3.845  0.977E-09  0.192E-09  0.150E-09  0.150E-09  0.125E-09  0.256E-10  0.167E-09  0.167E-09
  -3.825  0.124E-08  0.242E-09  0.192E-09  0.192E-09  0.162E-09  0.333E-10  0.212E-09  0.212E-09
  -3.805  0.157E-08  0.302E-09  0.243E-09  0.243E-09  0.208E-09  0.431E-10  0.267E-09  0.267E-09
  -3.785  0.199E-08  0.377E-09  0.308E-09  0.308E-09  0.267E-09  0.556E-10  0.336E-09  0.336E-09
  -3.765  0.250E-08  0.468E-09  0.388E-09  0.388E-09  0.341E-09  0.715E-10  0.420E-09  0.420E-09
  -3.745  0.313E-08  0.579E-09  0.488E-09  0.488E-09  0.433E-09  0.917E-10  0.524E-09  0.524E-09
  -3.725  0.390E-08  0.713E-09  0.610E-09  0.610E-09  0.549E-09  0.117E-09  0.651E-09  0.651E-09
  -3.705  0.485E-08  0.875E-09  0.761E-09  0.761E-09  0.693E-09  0.149E-09  0.806E-09  0.806E-09
  -3.685  0.601E-08  0.107E-08  0.945E-09  0.945E-09  0.871E-09  0.189E-09  0.995E-09  0.995E-09
  -3.665  0.741E-08  0.130E-08  0.117E-08  0.117E-08  0.109E-08  0.238E-09  0.122E-08  0.122E-08
  -3.645  0.911E-08  0.158E-08  0.144E-08  0.144E-08  0.136E-08  0.299E-09  0.150E-08  0.150E-08
  -3.625  0.112E-07  0.190E-08  0.177E-08  0.177E-08  0.169E-08  0.375E-09  0.182E-08  0.182E-08
  -3.605  0.136E-07  0.229E-08  0.217E-08  0.217E-08  0.209E-08  0.468E-09  0.222E-08  0.222E-08
  -3.585  0.166E-07  0.275E-08  0.264E-08  0.264E-08  0.258E-08  0.582E-09  0.268E-08  0.268E-08
  -3.565  0.201E-07  0.328E-08  0.321E-08  0.321E-08  0.318E-08  0.722E-09  0.324E-08  0.324E-08
  -3.545  0.242E-07  0.390E-08  0.389E-08  0.389E-08  0.389E-08  0.892E-09  0.389E-08  0.389E-08
  -3.525  0.292E-07  0.462E-08  0.470E-08  0.470E-08  0.474E-08  0.110E-08  0.466E-08  0.466E-08
  -3.505  0.350E-07  0.545E-08  0.565E-08  0.565E-08  0.576E-08  0.135E-08  0.557E-08  0.557E-08
  -3.485  0.418E-07  0.641E-08  0.677E-08  0.677E-08  0.698E-08  0.164E-08  0.662E-08  0.662E-08
  -3.465  0.498E-07  0.751E-08  0.808E-08  0.808E-08  0.842E-08  0.200E-08  0.785E-08  0.785E-08
  -3.445  0.591E-07  0.877E-08  0.962E-08  0.962E-08  0.101E-07  0.243E-08  0.928E-08  0.928E-08
  -3.425  0.699E-07  0.102E-07  0.114E-07  0.114E-07  0.121E-07  0.294E-08  0.109E-07  0.109E-07
  -3.405  0.825E-07  0.118E-07  0.135E-07  0.135E-07  0.145E-07  0.354E-08  0.128E-07  0.128E-07
  -3.385  0.969E-07  0.137E-07  0.159E-07  0.159E-07  0.172E-07  0.425E-08  0.150E-07  0.150E-07
  -3.365  0.114E-06  0.157E-07  0.187E-07  0.187E-07  0.204E-07  0.509E-08  0.175E-07  0.175E-07
  -3.345  0.133E-06  0.181E-07  0.218E-07  0.218E-07  0.241E-07  0.608E-08  0.203E-07  0.203E-07
  -3.325  0.154E-06  0.207E-07  0.255E-07  0.255E-07  0.284E-07  0.723E-08  0.236E-07  0.236E-07
  -3.305  0.179E-06  0.235E-07  0.296E-07  0.296E-07  0.333E-07  0.857E-08  0.272E-07  0.272E-07
  -3.285  0.207E-06  0.267E-07  0.344E-07  0.344E-07  0.389E-07  0.101E-07  0.313E-07  0.313E-07
  -3.265  0.239E-06  0.303E-07  0.397E-07  0.397E-07  0.453E-07  0.119E-07  0.359E-07  0.359E-07
  -3.245  0.275E-06  0.342E-07  0.457E-07  0.457E-07  0.527E-07  0.140E-07  0.411E-07  0.411E-07
  -3.225  0.315E-06  0.385E-07  0.525E-07  0.525E-07  0.609E-07  0.164E-07  0.469E-07  0.469E-07
  -3.205  0.360E-06  0.432E-07  0.601E-07  0.601E-07  0.703E-07  0.191E-07  0.534E-07  0.534E-07
  -3.185  0.410E-06  0.483E-07  0.686E-07  0.686E-07  0.808E-07  0.222E-07  0.605E-07  0.605E-07
  -3.165  0.465E-06  0.539E-07  0.781E-07  0.781E-07  0.926E-07  0.257E-07  0.684E-07  0.684E-07
  -3.145  0.527E-06  0.599E-07  0.886E-07  0.886E-07  0.106E-06  0.298E-07  0.772E-07  0.772E-07
  -3.125  0.595E-06  0.665E-07  0.100E-06  0.100E-06  0.121E-06  0.343E-07  0.868E-07  0.868E-07
  -3.105  0.671E-06  0.736E-07  0.113E-06  0.113E-06  0.137E-06  0.394E-07  0.973E-07  0.973E-07
  -3.085  0.753E-06  0.812E-07  0.127E-06  0.127E-06  0.155E-06  0.451E-07  0.109E-06  0.109E-06
  -3.065  0.844E-06  0.893E-07  0.143E-06  0.143E-06  0.175E-06  0.516E-07  0.121E-06  0.121E-06
  -3.045  0.943E-06  0.980E-07  0.160E-06  0.160E-06  0.197E-06  0.587E-07  0.135E-06  0.135E-06
  -3.025  0.105E-05  0.107E-06  0.178E-06  0.178E-06  0.220E-06  0.667E-07  0.150E-06  0.150E-06
  -3.005  0.117E-05  0.117E-06  0.198E-06  0.198E-06  0.247E-06  0.756E-07  0.166E-06  0.166E-06
  -2.985  0.129E-05  0.128E-06  0.220E-06  0.220E-06  0.275E-06  0.853E-07  0.183E-06  0.183E-06
  -2.965  0.143E-05  0.139E-06  0.243E-06  0.243E-06  0.306E-06  0.961E-07  0.201E-06  0.201E-06
  -2.945  0.158E-05  0.151E-06  0.268E-06  0.268E-06  0.339E-06  0.108E-06  0.221E-06  0.221E-06
  -2.925  0.173E-05  0.163E-06  0.295E-06  0.295E-06  0.374E-06  0.121E-06  0.243E-06  0.243E-06
  -2.905  0.190E-05  0.177E-06  0.324E-06  0.324E-06  0.413E-06  0.135E-06  0.265E-06  0.265E-06
  -2.885  0.208E-05  0.191E-06  0.355E-06  0.355E-06  0.454E-06  0.151E-06  0.289E-06  0.289E-06
  -2.865  0.228E-05  0.205E-06  0.388E-06  0.388E-06  0.497E-06  0.168E-06  0.315E-06  0.315E-06
  -2.845  0.248E-05  0.221E-06  0.423E-06  0.423E-06  0.544E-06  0.186E-06  0.342E-06  0.342E-06
  -2.825  0.270E-05  0.237E-06  0.460E-06  0.460E-06  0.593E-06  0.206E-06  0.371E-06  0.371E-06
  -2.805  0.292E-05  0.254E-06  0.499E-06  0.499E-06  0.645E-06  0.227E-06  0.401E-06  0.401E-06
  -2.785  0.317E-05  0.272E-06  0.539E-06  0.539E-06  0.700E-06  0.250E-06  0.432E-06  0.432E-06
  -2.765  0.342E-05  0.290E-06  0.582E-06  0.582E-06  0.758E-06  0.274E-06  0.466E-06  0.466E-06
  -2.745  0.368E-05  0.310E-06  0.627E-06  0.627E-06  0.818E-06  0.301E-06  0.500E-06  0.500E-06
  -2.725  0.396E-05  0.330E-06  0.674E-06  0.674E-06  0.881E-06  0.329E-06  0.537E-06  0.537E-06
  -2.705  0.425E-05  0.351E-06  0.723E-06  0.723E-06  0.947E-06  0.359E-06  0.575E-06  0.575E-06
  -2.685  0.456E-05  0.374E-06  0.774E-06  0.774E-06  0.101E-05  0.391E-06  0.614E-06  0.614E-06
  -2.665  0.487E-05  0.397E-06  0.827E-06  0.827E-06  0.109E-05  0.424E-06  0.655E-06  0.655E-06
  -2.645  0.520E-05  0.421E-06  0.882E-06  0.882E-06  0.116E-05  0.460E-06  0.697E-06  0.697E-06
  -2.625  0.554E-05  0.446E-06  0.938E-06  0.938E-06  0.123E-05  0.498E-06  0.741E-06  0.741E-06
  -2.605  0.589E-05  0.473E-06  0.996E-06  0.996E-06  0.131E-05  0.537E-06  0.787E-06  0.787E-06
  -2.585  0.625E-05  0.500E-06  0.106E-05  0.106E-05  0.139E-05  0.579E-06  0.833E-06  0.833E-06
  -2.565  0.662E-05  0.529E-06  0.112E-05  0.112E-05  0.147E-05  0.623E-06  0.882E-06  0.882E-06
  -2.545  0.700E-05  0.559E-06  0.118E-05  0.118E-05  0.155E-05  0.668E-06  0.931E-06  0.931E-06
  -2.525  0.739E-05  0.590E-06  0.124E-05  0.124E-05  0.163E-05  0.716E-06  0.982E-06  0.982E-06
  -2.505  0.779E-05  0.623E-06  0.131E-05  0.131E-05  0.172E-05  0.766E-06  0.103E-05  0.103E-05
  -2.485  0.820E-05  0.657E-06  0.137E-05  0.137E-05  0.180E-05  0.817E-06  0.109E-05  0.109E-05
  -2.465  0.861E-05  0.693E-06  0.144E-05  0.144E-05  0.189E-05  0.871E-06  0.114E-05  0.114E-05
  -2.445  0.904E-05  0.730E-06  0.151E-05  0.151E-05  0.197E-05  0.927E-06  0.120E-05  0.120E-05
  -2.425  0.947E-05  0.768E-06  0.158E-05  0.158E-05  0.206E-05  0.985E-06  0.125E-05  0.125E-05
  -2.405  0.991E-05  0.808E-06  0.164E-05  0.164E-05  0.215E-05  0.104E-05  0.131E-05  0.131E-05
  -2.385  0.104E-04  0.850E-06  0.171E-05  0.171E-05  0.223E-05  0.111E-05  0.137E-05  0.137E-05
  -2.365  0.108E-04  0.893E-06  0.178E-05  0.178E-05  0.232E-05  0.117E-05  0.143E-05  0.143E-05
  -2.345  0.113E-04  0.939E-06  0.185E-05  0.185E-05  0.240E-05  0.123E-05  0.149E-05  0.149E-05
  -2.325  0.117E-04  0.986E-06  0.192E-05  0.192E-05  0.249E-05  0.130E-05  0.155E-05  0.155E-05
  -2.305  0.122E-04  0.103E-05  0.199E-05  0.199E-05  0.257E-05  0.137E-05  0.161E-05  0.161E-05
  -2.285  0.126E-04  0.109E-05  0.206E-05  0.206E-05  0.265E-05  0.144E-05  0.167E-05  0.167E-05
  -2.265  0.131E-04  0.114E-05  0.213E-05  0.213E-05  0.273E-05  0.151E-05  0.174E-05  0.174E-05
  -2.245  0.136E-04  0.119E-05  0.220E-05  0.220E-05  0.281E-05  0.158E-05  0.180E-05  0.180E-05
  -2.225  0.141E-04  0.125E-05  0.227E-05  0.227E-05  0.288E-05  0.165E-05  0.186E-05  0.186E-05
  -2.205  0.145E-04  0.131E-05  0.234E-05  0.234E-05  0.296E-05  0.173E-05  0.193E-05  0.193E-05
  -2.185  0.150E-04  0.137E-05  0.241E-05  0.241E-05  0.303E-05  0.181E-05  0.199E-05  0.199E-05
  -2.165  0.155E-04  0.143E-05  0.247E-05  0.247E-05  0.310E-05  0.188E-05  0.206E-05  0.206E-05
  -2.145  0.160E-04  0.150E-05  0.254E-05  0.254E-05  0.317E-05  0.196E-05  0.212E-05  0.212E-05
  -2.125  0.164E-04  0.156E-05  0.261E-05  0.261E-05  0.323E-05  0.204E-05  0.219E-05  0.219E-05
  -2.105  0.169E-04  0.163E-05  0.267E-05  0.267E-05  0.329E-05  0.212E-05  0.226E-05  0.226E-05
  -2.085  0.174E-04  0.170E-05  0.273E-05  0.273E-05  0.335E-05  0.220E-05  0.232E-05  0.232E-05
  -2.065  0.178E-04  0.178E-05  0.280E-05  0.280E-05  0.341E-05  0.228E-05  0.239E-05  0.239E-05
  -2.045  0.183E-04  0.185E-05  0.286E-05  0.286E-05  0.346E-05  0.237E-05  0.246E-05  0.246E-05
  -2.025  0.188E-04  0.193E-05  0.292E-05  0.292E-05  0.351E-05  0.245E-05  0.252E-05  0.252E-05
  -2.005  0.192E-04  0.201E-05  0.298E-05  0.298E-05  0.356E-05  0.253E-05  0.259E-05  0.259E-05
  -1.985  0.197E-04  0.209E-05  0.303E-05  0.303E-05  0.360E-05  0.261E-05  0.266E-05  0.266E-05
  -1.965  0.201E-04  0.218E-05  0.309E-05  0.309E-05  0.364E-05  0.270E-05  0.273E-05  0.273E-05
  -1.945  0.206E-04  0.226E-05  0.315E-05  0.315E-05  0.368E-05  0.278E-05  0.279E-05  0.279E-05
  -1.925  0.210E-04  0.235E-05  0.320E-05  0.320E-05  0.371E-05  0.287E-05  0.286E-05  0.286E-05
  -1.905  0.215E-04  0.244E-05  0.325E-05  0.325E-05  0.374E-05  0.295E-05  0.293E-05  0.293E-05
  -1.885  0.219E-04  0.253E-05  0.331E-05  0.331E-05  0.377E-05  0.303E-05  0.300E-05  0.300E-05
  -1.865  0.224E-04  0.262E-05  0.336E-05  0.336E-05  0.379E-05  0.312E-05  0.306E-05  0.306E-05
  -1.845  0.228E-04  0.272E-05  0.340E-05  0.340E-05  0.382E-05  0.320E-05  0.313E-05  0.313E-05
  -1.825  0.232E-04  0.282E-05  0.345E-05  0.345E-05  0.383E-05  0.328E-05  0.320E-05  0.320E-05
  -1.805  0.237E-04  0.291E-05  0.350E-05  0.350E-05  0.385E-05  0.337E-05  0.326E-05  0.326E-05
  -1.785  0.241E-04  0.301E-05  0.354E-05  0.354E-05  0.386E-05  0.345E-05  0.333E-05  0.333E-05
  -1.765  0.245E-04  0.312E-05  0.359E-05  0.359E-05  0.387E-05  0.353E-05  0.340E-05  0.340E-05
  -1.745  0.249E-04  0.322E-05  0.363E-05  0.363E-05  0.388E-05  0.361E-05  0.347E-05  0.347E-05
  -1.725  0.253E-04  0.332E-05  0.367E-05  0.367E-05  0.388E-05  0.369E-05  0.353E-05  0.353E-05
  -1.705  0.257E-04  0.343E-05  0.371E-05  0.371E-05  0.389E-05  0.377E-05  0.360E-05  0.360E-05
  -1.685  0.261E-04  0.353E-05  0.375E-05  0.375E-05  0.389E-05  0.385E-05  0.366E-05  0.366E-05
  -1.665  0.265E-04  0.364E-05  0.379E-05  0.379E-05  0.389E-05  0.393E-05  0.373E-05  0.373E-05
  -1.645  0.269E-04  0.375E-05  0.383E-05  0.383E-05  0.388E-05  0.401E-05  0.380E-05  0.380E-05
  -1.625  0.273E-04  0.385E-05  0.387E-05  0.387E-05  0.388E-05  0.409E-05  0.386E-05  0.386E-05
  -1.605  0.277E-04  0.396E-05  0.390E-05  0.390E-05  0.387E-05  0.416E-05  0.393E-05  0.393E-05
  -1.585  0.280E-04  0.407E-05  0.394E-05  0.394E-05  0.386E-05  0.424E-05  0.399E-05  0.399E-05
  -1.565  0.284E-04  0.418E-05  0.397E-05  0.397E-05  0.385E-05  0.432E-05  0.406E-05  0.406E-05
  -1.545  0.288E-04  0.429E-05  0.401E-05  0.401E-05  0.384E-05  0.439E-05  0.412E-05  0.412E-05
  -1.525  0.291E-04  0.440E-05  0.404E-05  0.404E-05  0.383E-05  0.447E-05  0.418E-05  0.418E-05
  -1.505  0.295E-04  0.451E-05  0.408E-05  0.408E-05  0.382E-05  0.454E-05  0.425E-05  0.425E-05
  -1.485  0.299E-04  0.462E-05  0.411E-05  0.411E-05  0.380E-05  0.462E-05  0.431E-05  0.431E-05
  -1.465  0.302E-04  0.473E-05  0.414E-05  0.414E-05  0.379E-05  0.469E-05  0.437E-05  0.437E-05
  -1.445  0.306E-04  0.483E-05  0.417E-05  0.417E-05  0.378E-05  0.477E-05  0.444E-05  0.444E-05
  -1.425  0.310E-04  0.494E-05  0.420E-05  0.420E-05  0.376E-05  0.484E-05  0.450E-05  0.450E-05
  -1.405  0.313E-04  0.505E-05  0.424E-05  0.424E-05  0.375E-05  0.492E-05  0.456E-05  0.456E-05
  -1.385  0.317E-04  0.516E-05  0.427E-05  0.427E-05  0.374E-05  0.499E-05  0.462E-05  0.462E-05
  -1.365  0.320E-04  0.526E-05  0.430E-05  0.430E-05  0.372E-05  0.506E-05  0.468E-05  0.468E-05
  -1.345  0.324E-04  0.537E-05  0.433E-05  0.433E-05  0.371E-05  0.513E-05  0.475E-05  0.475E-05
  -1.325  0.327E-04  0.547E-05  0.437E-05  0.437E-05  0.370E-05  0.521E-05  0.481E-05  0.481E-05
  -1.305  0.331E-04  0.557E-05  0.440E-05  0.440E-05  0.370E-05  0.528E-05  0.487E-05  0.487E-05
  -1.285  0.334E-04  0.567E-05  0.443E-05  0.443E-05  0.369E-05  0.535E-05  0.493E-05  0.493E-05
  -1.265  0.338E-04  0.577E-05  0.447E-05  0.447E-05  0.368E-05  0.542E-05  0.499E-05  0.499E-05
  -1.245  0.341E-04  0.587E-05  0.450E-05  0.450E-05  0.368E-05  0.549E-05  0.505E-05  0.505E-05
  -1.225  0.345E-04  0.596E-05  0.454E-05  0.454E-05  0.368E-05  0.555E-05  0.511E-05  0.511E-05
  -1.205  0.348E-04  0.606E-05  0.457E-05  0.457E-05  0.368E-05  0.562E-05  0.517E-05  0.517E-05
  -1.185  0.352E-04  0.615E-05  0.461E-05  0.461E-05  0.368E-05  0.569E-05  0.523E-05  0.523E-05
  -1.165  0.356E-04  0.624E-05  0.465E-05  0.465E-05  0.369E-05  0.576E-05  0.528E-05  0.528E-05
  -1.145  0.359E-04  0.633E-05  0.469E-05  0.469E-05  0.370E-05  0.583E-05  0.534E-05  0.534E-05
  -1.125  0.363E-04  0.641E-05  0.473E-05  0.473E-05  0.371E-05  0.590E-05  0.540E-05  0.540E-05
  -1.105  0.367E-04  0.650E-05  0.477E-05  0.477E-05  0.373E-05  0.597E-05  0.546E-05  0.546E-05
  -1.085  0.370E-04  0.658E-05  0.481E-05  0.481E-05  0.375E-05  0.604E-05  0.552E-05  0.552E-05
  -1.065  0.374E-04  0.666E-05  0.486E-05  0.486E-05  0.378E-05  0.611E-05  0.558E-05  0.558E-05
  -1.045  0.378E-04  0.673E-05  0.490E-05  0.490E-05  0.380E-05  0.618E-05  0.563E-05  0.563E-05
  -1.025  0.382E-04  0.681E-05  0.495E-05  0.495E-05  0.384E-05  0.626E-05  0.569E-05  0.569E-05
  -1.005  0.386E-04  0.688E-05  0.500E-05  0.500E-05  0.387E-05  0.634E-05  0.575E-05  0.575E-05
  -0.985  0.390E-04  0.694E-05  0.505E-05  0.505E-05  0.392E-05  0.642E-05  0.581E-05  0.581E-05
  -0.965  0.394E-04  0.701E-05  0.511E-05  0.511E-05  0.396E-05  0.650E-05  0.587E-05  0.587E-05
  -0.945  0.398E-04  0.707E-05  0.516E-05  0.516E-05  0.402E-05  0.658E-05  0.593E-05  0.593E-05
  -0.925  0.403E-04  0.713E-05  0.522E-05  0.522E-05  0.407E-05  0.667E-05  0.599E-05  0.599E-05
  -0.905  0.407E-04  0.719E-05  0.528E-05  0.528E-05  0.414E-05  0.675E-05  0.605E-05  0.605E-05
  -0.885  0.412E-04  0.725E-05  0.535E-05  0.535E-05  0.421E-05  0.684E-05  0.611E-05  0.611E-05
  -0.865  0.417E-04  0.730E-05  0.542E-05  0.542E-05  0.428E-05  0.693E-05  0.617E-05  0.617E-05
  -0.845  0.422E-04  0.735E-05  0.549E-05  0.549E-05  0.437E-05  0.702E-05  0.623E-05  0.623E-05
  -0.825  0.427E-04  0.740E-05  0.556E-05  0.556E-05  0.446E-05  0.712E-05  0.630E-05  0.630E-05
  -0.805  0.432E-04  0.745E-05  0.564E-05  0.564E-05  0.456E-05  0.721E-05  0.636E-05  0.636E-05
  -0.785  0.438E-04  0.749E-05  0.572E-05  0.572E-05  0.466E-05  0.730E-05  0.643E-05  0.643E-05
  -0.765  0.443E-04  0.753E-05  0.581E-05  0.581E-05  0.478E-05  0.739E-05  0.650E-05  0.650E-05
  -0.745  0.449E-04  0.757E-05  0.590E-05  0.590E-05  0.490E-05  0.749E-05  0.657E-05  0.657E-05
  -0.725  0.455E-04  0.761E-05  0.600E-05  0.600E-05  0.504E-05  0.758E-05  0.665E-05  0.665E-05
  -0.705  0.461E-04  0.765E-05  0.610E-05  0.610E-05  0.518E-05  0.767E-05  0.672E-05  0.672E-05
  -0.685  0.468E-04  0.768E-05  0.621E-05  0.621E-05  0.533E-05  0.776E-05  0.680E-05  0.680E-05
  -0.665  0.475E-04  0.771E-05  0.633E-05  0.633E-05  0.550E-05  0.785E-05  0.688E-05  0.688E-05
  -0.645  0.482E-04  0.774E-05  0.645E-05  0.645E-05  0.567E-05  0.794E-05  0.697E-05  0.697E-05
  -0.625  0.489E-04  0.777E-05  0.657E-05  0.657E-05  0.586E-05  0.803E-05  0.705E-05  0.705E-05
  -0.605  0.497E-04  0.780E-05  0.671E-05  0.671E-05  0.606E-05  0.812E-05  0.714E-05  0.714E-05
  -0.585  0.505E-04  0.782E-05  0.685E-05  0.685E-05  0.627E-05  0.821E-05  0.724E-05  0.724E-05
  -0.565  0.513E-04  0.785E-05  0.700E-05  0.700E-05  0.649E-05  0.830E-05  0.734E-05  0.734E-05
  -0.545  0.522E-04  0.787E-05  0.716E-05  0.716E-05  0.673E-05  0.840E-05  0.744E-05  0.744E-05
  -0.525  0.531E-04  0.789E-05  0.733E-05  0.733E-05  0.699E-05  0.850E-05  0.755E-05  0.755E-05
  -0.505  0.541E-04  0.791E-05  0.750E-05  0.750E-05  0.726E-05  0.860E-05  0.767E-05  0.767E-05
  -0.485  0.551E-04  0.793E-05  0.769E-05  0.769E-05  0.755E-05  0.871E-05  0.779E-05  0.779E-05
  -0.465  0.562E-04  0.795E-05  0.789E-05  0.789E-05  0.786E-05  0.882E-05  0.791E-05  0.791E-05
  -0.445  0.574E-04  0.797E-05  0.810E-05  0.810E-05  0.819E-05  0.893E-05  0.805E-05  0.805E-05
  -0.425  0.586E-04  0.798E-05  0.833E-05  0.833E-05  0.853E-05  0.906E-05  0.819E-05  0.819E-05
  -0.405  0.599E-04  0.800E-05  0.857E-05  0.857E-05  0.890E-05  0.918E-05  0.834E-05  0.834E-05
  -0.385  0.613E-04  0.802E-05  0.882E-05  0.882E-05  0.930E-05  0.932E-05  0.850E-05  0.850E-05
  -0.365  0.627E-04  0.804E-05  0.909E-05  0.909E-05  0.971E-05  0.945E-05  0.867E-05  0.867E-05
  -0.345  0.642E-04  0.806E-05  0.937E-05  0.937E-05  0.102E-04  0.960E-05  0.884E-05  0.884E-05
  -0.325  0.659E-04  0.808E-05  0.967E-05  0.967E-05  0.106E-04  0.975E-05  0.903E-05  0.903E-05
  -0.305  0.676E-04  0.810E-05  0.100E-04  0.100E-04  0.111E-04  0.990E-05  0.924E-05  0.924E-05
  -0.285  0.694E-04  0.812E-05  0.103E-04  0.103E-04  0.117E-04  0.101E-04  0.945E-05  0.945E-05
  -0.265  0.714E-04  0.814E-05  0.107E-04  0.107E-04  0.122E-04  0.102E-04  0.968E-05  0.968E-05
  -0.245  0.734E-04  0.817E-05  0.111E-04  0.111E-04  0.128E-04  0.104E-04  0.992E-05  0.992E-05
  -0.225  0.756E-04  0.820E-05  0.115E-04  0.115E-04  0.135E-04  0.105E-04  0.102E-04  0.102E-04
  -0.205  0.779E-04  0.823E-05  0.119E-04  0.119E-04  0.142E-04  0.107E-04  0.105E-04  0.105E-04
  -0.185  0.803E-04  0.826E-05  0.124E-04  0.124E-04  0.149E-04  0.108E-04  0.108E-04  0.108E-04
  -0.165  0.829E-04  0.830E-05  0.129E-04  0.129E-04  0.157E-04  0.110E-04  0.111E-04  0.111E-04
  -0.145  0.857E-04  0.834E-05  0.134E-04  0.134E-04  0.165E-04  0.111E-04  0.114E-04  0.114E-04
  -0.125  0.886E-04  0.838E-05  0.140E-04  0.140E-04  0.174E-04  0.113E-04  0.118E-04  0.118E-04
  -0.105  0.917E-04  0.842E-05  0.146E-04  0.146E-04  0.183E-04  0.114E-04  0.121E-04  0.121E-04
  -0.085  0.950E-04  0.848E-05  0.153E-04  0.153E-04  0.193E-04  0.115E-04  0.125E-04  0.125E-04
  -0.065  0.984E-04  0.853E-05  0.159E-04  0.159E-04  0.204E-04  0.117E-04  0.130E-04  0.130E-04
  -0.045  0.102E-03  0.859E-05  0.167E-04  0.167E-04  0.215E-04  0.118E-04  0.134E-04  0.134E-04
  -0.025  0.106E-03  0.866E-05  0.175E-04  0.175E-04  0.227E-04  0.119E-04  0.139E-04  0.139E-04
  -0.005  0.110E-03  0.873E-05  0.183E-04  0.183E-04  0.240E-04  0.120E-04  0.145E-04  0.145E-04
   0.015  0.115E-03  0.881E-05  0.192E-04  0.192E-04  0.254E-04  0.121E-04  0.150E-04  0.150E-04
   0.035  0.119E-03  0.889E-05  0.201E-04  0.201E-04  0.269E-04  0.122E-04  0.156E-04  0.156E-04
   0.055  0.125E-03  0.898E-05  0.211E-04  0.211E-04  0.284E-04  0.124E-04  0.163E-04  0.163E-04
   0.075  0.130E-03  0.908E-05  0.222E-04  0.222E-04  0.301E-04  0.125E-04  0.170E-04  0.170E-04
   0.095  0.136E-03  0.919E-05  0.233E-04  0.233E-04  0.318E-04  0.126E-04  0.177E-04  0.177E-04
   0.115  0.142E-03  0.930E-05  0.246E-04  0.246E-04  0.337E-04  0.127E-04  0.185E-04  0.185E-04
   0.135  0.148E-03  0.943E-05  0.259E-04  0.259E-04  0.357E-04  0.128E-04  0.193E-04  0.193E-04
   0.155  0.155E-03  0.956E-05  0.272E-04  0.272E-04  0.378E-04  0.130E-04  0.202E-04  0.202E-04
   0.175  0.162E-03  0.971E-05  0.287E-04  0.287E-04  0.401E-04  0.131E-04  0.211E-04  0.211E-04
   0.195  0.170E-03  0.986E-05  0.302E-04  0.302E-04  0.425E-04  0.133E-04  0.221E-04  0.221E-04
   0.215  0.178E-03  0.100E-04  0.319E-04  0.319E-04  0.450E-04  0.134E-04  0.231E-04  0.231E-04
   0.235  0.187E-03  0.102E-04  0.336E-04  0.336E-04  0.477E-04  0.136E-04  0.242E-04  0.242E-04
   0.255  0.196E-03  0.104E-04  0.355E-04  0.355E-04  0.505E-04  0.138E-04  0.254E-04  0.254E-04
   0.275  0.206E-03  0.106E-04  0.374E-04  0.374E-04  0.535E-04  0.140E-04  0.267E-04  0.267E-04
   0.295  0.216E-03  0.108E-04  0.394E-04  0.394E-04  0.566E-04  0.142E-04  0.280E-04  0.280E-04
   0.315  0.227E-03  0.110E-04  0.416E-04  0.416E-04  0.599E-04  0.144E-04  0.293E-04  0.293E-04
   0.335  0.238E-03  0.112E-04  0.438E-04  0.438E-04  0.634E-04  0.146E-04  0.308E-04  0.308E-04
   0.355  0.250E-03  0.114E-04  0.462E-04  0.462E-04  0.670E-04  0.148E-04  0.323E-04  0.323E-04
   0.375  0.262E-03  0.117E-04  0.486E-04  0.486E-04  0.708E-04  0.150E-04  0.339E-04  0.339E-04
   0.395  0.275E-03  0.119E-04  0.512E-04  0.512E-04  0.748E-04  0.152E-04  0.355E-04  0.355E-04
   0.415  0.288E-03  0.122E-04  0.539E-04  0.539E-04  0.789E-04  0.154E-04  0.372E-04  0.372E-04
   0.435  0.302E-03  0.124E-04  0.566E-04  0.566E-04  0.831E-04  0.155E-04  0.389E-04  0.389E-04
   0.455  0.316E-03  0.127E-04  0.594E-04  0.594E-04  0.875E-04  0.157E-04  0.407E-04  0.407E-04
   0.475  0.331E-03  0.130E-04  0.623E-04  0.623E-04  0.920E-04  0.159E-04  0.426E-04  0.426E-04
   0.495  0.346E-03  0.132E-04  0.653E-04  0.653E-04  0.966E-04  0.160E-04  0.445E-04  0.445E-04
   0.515  0.361E-03  0.135E-04  0.684E-04  0.684E-04  0.101E-03  0.162E-04  0.464E-04  0.464E-04
   0.535  0.376E-03  0.138E-04  0.715E-04  0.715E-04  0.106E-03  0.163E-04  0.484E-04  0.484E-04
   0.555  0.391E-03  0.141E-04  0.746E-04  0.746E-04  0.111E-03  0.164E-04  0.504E-04  0.504E-04
   0.575  0.407E-03  0.144E-04  0.778E-04  0.778E-04  0.116E-03  0.164E-04  0.524E-04  0.524E-04
   0.595  0.423E-03  0.147E-04  0.810E-04  0.810E-04  0.121E-03  0.165E-04  0.545E-04  0.545E-04
   0.615  0.439E-03  0.150E-04  0.841E-04  0.841E-04  0.126E-03  0.165E-04  0.565E-04  0.565E-04
   0.635  0.454E-03  0.154E-04  0.873E-04  0.873E-04  0.130E-03  0.166E-04  0.585E-04  0.585E-04
   0.655  0.470E-03  0.157E-04  0.905E-04  0.905E-04  0.135E-03  0.166E-04  0.606E-04  0.606E-04
   0.675  0.485E-03  0.160E-04  0.936E-04  0.936E-04  0.140E-03  0.166E-04  0.626E-04  0.626E-04
   0.695  0.500E-03  0.164E-04  0.966E-04  0.966E-04  0.145E-03  0.165E-04  0.645E-04  0.645E-04
   0.715  0.515E-03  0.168E-04  0.996E-04  0.996E-04  0.149E-03  0.165E-04  0.665E-04  0.665E-04
   0.735  0.529E-03  0.172E-04  0.102E-03  0.102E-03  0.154E-03  0.165E-04  0.683E-04  0.683E-04
   0.755  0.543E-03  0.176E-04  0.105E-03  0.105E-03  0.158E-03  0.164E-04  0.702E-04  0.702E-04
   0.775  0.556E-03  0.180E-04  0.108E-03  0.108E-03  0.162E-03  0.164E-04  0.719E-04  0.719E-04
   0.795  0.569E-03  0.185E-04  0.110E-03  0.110E-03  0.166E-03  0.164E-04  0.737E-04  0.737E-04
   0.815  0.581E-03  0.189E-04  0.113E-03  0.113E-03  0.169E-03  0.163E-04  0.753E-04  0.753E-04
   0.835  0.592E-03  0.194E-04  0.115E-03  0.115E-03  0.173E-03  0.163E-04  0.769E-04  0.769E-04
   0.855  0.603E-03  0.200E-04  0.117E-03  0.117E-03  0.176E-03  0.163E-04  0.783E-04  0.783E-04
   0.875  0.613E-03  0.205E-04  0.119E-03  0.119E-03  0.178E-03  0.163E-04  0.798E-04  0.798E-04
   0.895  0.623E-03  0.211E-04  0.121E-03  0.121E-03  0.181E-03  0.163E-04  0.811E-04  0.811E-04
   0.915  0.631E-03  0.217E-04  0.123E-03  0.123E-03  0.183E-03  0.163E-04  0.823E-04  0.823E-04
   0.935  0.639E-03  0.224E-04  0.124E-03  0.124E-03  0.185E-03  0.164E-04  0.835E-04  0.835E-04
   0.955  0.646E-03  0.230E-04  0.125E-03  0.125E-03  0.187E-03  0.164E-04  0.845E-04  0.845E-04
   0.975  0.653E-03  0.238E-04  0.127E-03  0.127E-03  0.188E-03  0.165E-04  0.855E-04  0.855E-04
   0.995  0.659E-03  0.245E-04  0.128E-03  0.128E-03  0.190E-03  0.165E-04  0.864E-04  0.864E-04
   1.015  0.664E-03  0.253E-04  0.128E-03  0.128E-03  0.190E-03  0.166E-04  0.872E-04  0.872E-04
   1.035  0.668E-03  0.261E-04  0.129E-03  0.129E-03  0.191E-03  0.167E-04  0.879E-04  0.879E-04
   1.055  0.672E-03  0.269E-04  0.130E-03  0.130E-03  0.191E-03  0.167E-04  0.886E-04  0.886E-04
   1.075  0.675E-03  0.277E-04  0.130E-03  0.130E-03  0.192E-03  0.168E-04  0.891E-04  0.891E-04
   1.095  0.677E-03  0.286E-04  0.130E-03  0.130E-03  0.191E-03  0.169E-04  0.897E-04  0.897E-04
   1.115  0.679E-03  0.295E-04  0.131E-03  0.131E-03  0.191E-03  0.169E-04  0.901E-04  0.901E-04
   1.135  0.680E-03  0.304E-04  0.131E-03  0.131E-03  0.191E-03  0.170E-04  0.905E-04  0.905E-04
   1.155  0.681E-03  0.313E-04  0.130E-03  0.130E-03  0.190E-03  0.170E-04  0.908E-04  0.908E-04
   1.175  0.681E-03  0.323E-04  0.130E-03  0.130E-03  0.189E-03  0.170E-04  0.911E-04  0.911E-04
   1.195  0.681E-03  0.332E-04  0.130E-03  0.130E-03  0.188E-03  0.170E-04  0.913E-04  0.913E-04
   1.215  0.680E-03  0.342E-04  0.130E-03  0.130E-03  0.187E-03  0.169E-04  0.915E-04  0.915E-04
   1.235  0.679E-03  0.352E-04  0.129E-03  0.129E-03  0.186E-03  0.169E-04  0.916E-04  0.916E-04
   1.255  0.678E-03  0.363E-04  0.129E-03  0.129E-03  0.184E-03  0.168E-04  0.918E-04  0.918E-04
   1.275  0.677E-03  0.373E-04  0.128E-03  0.128E-03  0.183E-03  0.166E-04  0.919E-04  0.919E-04
   1.295  0.675E-03  0.385E-04  0.128E-03  0.128E-03  0.181E-03  0.165E-04  0.920E-04  0.920E-04
   1.315  0.673E-03  0.396E-04  0.127E-03  0.127E-03  0.179E-03  0.163E-04  0.920E-04  0.920E-04
   1.335  0.672E-03  0.408E-04  0.126E-03  0.126E-03  0.178E-03  0.161E-04  0.921E-04  0.921E-04
   1.355  0.670E-03  0.420E-04  0.126E-03  0.126E-03  0.176E-03  0.159E-04  0.922E-04  0.922E-04
   1.375  0.668E-03  0.433E-04  0.125E-03  0.125E-03  0.174E-03  0.157E-04  0.924E-04  0.924E-04
   1.395  0.666E-03  0.447E-04  0.124E-03  0.124E-03  0.172E-03  0.154E-04  0.925E-04  0.925E-04
   1.415  0.664E-03  0.461E-04  0.124E-03  0.124E-03  0.170E-03  0.152E-04  0.927E-04  0.927E-04
   1.435  0.663E-03  0.476E-04  0.123E-03  0.123E-03  0.168E-03  0.149E-04  0.929E-04  0.929E-04
   1.455  0.662E-03  0.492E-04  0.122E-03  0.122E-03  0.166E-03  0.146E-04  0.932E-04  0.932E-04
   1.475  0.661E-03  0.509E-04  0.122E-03  0.122E-03  0.165E-03  0.143E-04  0.935E-04  0.935E-04
   1.495  0.660E-03  0.527E-04  0.121E-03  0.121E-03  0.163E-03  0.141E-04  0.939E-04  0.939E-04
   1.515  0.659E-03  0.545E-04  0.121E-03  0.121E-03  0.161E-03  0.138E-04  0.943E-04  0.943E-04
   1.535  0.659E-03  0.565E-04  0.120E-03  0.120E-03  0.159E-03  0.136E-04  0.949E-04  0.949E-04
   1.555  0.660E-03  0.586E-04  0.120E-03  0.120E-03  0.157E-03  0.133E-04  0.954E-04  0.954E-04
   1.575  0.660E-03  0.607E-04  0.120E-03  0.120E-03  0.155E-03  0.131E-04  0.961E-04  0.961E-04
   1.595  0.662E-03  0.630E-04  0.119E-03  0.119E-03  0.153E-03  0.129E-04  0.968E-04  0.968E-04
   1.615  0.663E-03  0.654E-04  0.119E-03  0.119E-03  0.151E-03  0.127E-04  0.976E-04  0.976E-04
   1.635  0.665E-03  0.678E-04  0.119E-03  0.119E-03  0.150E-03  0.126E-04  0.985E-04  0.985E-04
   1.655  0.667E-03  0.703E-04  0.119E-03  0.119E-03  0.148E-03  0.124E-04  0.994E-04  0.994E-04
   1.675  0.670E-03  0.728E-04  0.119E-03  0.119E-03  0.146E-03  0.123E-04  0.100E-03  0.100E-03
   1.695  0.673E-03  0.754E-04  0.119E-03  0.119E-03  0.145E-03  0.122E-04  0.101E-03  0.101E-03
   1.715  0.676E-03  0.781E-04  0.119E-03  0.119E-03  0.143E-03  0.121E-04  0.102E-03  0.102E-03
   1.735  0.679E-03  0.807E-04  0.119E-03  0.119E-03  0.142E-03  0.120E-04  0.104E-03  0.104E-03
   1.755  0.682E-03  0.834E-04  0.119E-03  0.119E-03  0.140E-03  0.119E-04  0.105E-03  0.105E-03
   1.775  0.686E-03  0.860E-04  0.119E-03  0.119E-03  0.139E-03  0.118E-04  0.106E-03  0.106E-03
   1.795  0.689E-03  0.886E-04  0.119E-03  0.119E-03  0.137E-03  0.118E-04  0.107E-03  0.107E-03
   1.815  0.692E-03  0.911E-04  0.119E-03  0.119E-03  0.136E-03  0.117E-04  0.108E-03  0.108E-03
   1.835  0.696E-03  0.936E-04  0.119E-03  0.119E-03  0.134E-03  0.116E-04  0.109E-03  0.109E-03
   1.855  0.699E-03  0.960E-04  0.119E-03  0.119E-03  0.133E-03  0.116E-04  0.110E-03  0.110E-03
   1.875  0.701E-03  0.983E-04  0.119E-03  0.119E-03  0.132E-03  0.115E-04  0.111E-03  0.111E-03
   1.895  0.704E-03  0.100E-03  0.119E-03  0.119E-03  0.130E-03  0.114E-04  0.112E-03  0.112E-03
   1.915  0.706E-03  0.103E-03  0.119E-03  0.119E-03  0.129E-03  0.113E-04  0.112E-03  0.112E-03
   1.935  0.708E-03  0.105E-03  0.119E-03  0.119E-03  0.128E-03  0.112E-04  0.113E-03  0.113E-03
   1.955  0.710E-03  0.106E-03  0.119E-03  0.119E-03  0.126E-03  0.110E-04  0.114E-03  0.114E-03
   1.975  0.711E-03  0.108E-03  0.119E-03  0.119E-03  0.125E-03  0.109E-04  0.115E-03  0.115E-03
   1.995  0.712E-03  0.110E-03  0.119E-03  0.119E-03  0.124E-03  0.107E-04  0.115E-03  0.115E-03
   2.015  0.712E-03  0.112E-03  0.118E-03  0.118E-03  0.122E-03  0.105E-04  0.116E-03  0.116E-03
   2.035  0.712E-03  0.113E-03  0.118E-03  0.118E-03  0.121E-03  0.103E-04  0.116E-03  0.116E-03
   2.055  0.712E-03  0.115E-03  0.118E-03  0.118E-03  0.120E-03  0.101E-04  0.116E-03  0.116E-03
   2.075  0.712E-03  0.116E-03  0.117E-03  0.117E-03  0.118E-03  0.993E-05  0.117E-03  0.117E-03
   2.095  0.712E-03  0.117E-03  0.117E-03  0.117E-03  0.117E-03  0.970E-05  0.117E-03  0.117E-03
   2.115  0.712E-03  0.119E-03  0.117E-03  0.117E-03  0.115E-03  0.948E-05  0.117E-03  0.117E-03
   2.135  0.711E-03  0.120E-03  0.116E-03  0.116E-03  0.114E-03  0.925E-05  0.118E-03  0.118E-03
   2.155  0.711E-03  0.122E-03  0.116E-03  0.116E-03  0.112E-03  0.902E-05  0.118E-03  0.118E-03
   2.175  0.711E-03  0.124E-03  0.115E-03  0.115E-03  0.111E-03  0.879E-05  0.119E-03  0.119E-03
   2.195  0.712E-03  0.125E-03  0.115E-03  0.115E-03  0.109E-03  0.856E-05  0.119E-03  0.119E-03
   2.215  0.712E-03  0.127E-03  0.115E-03  0.115E-03  0.108E-03  0.834E-05  0.120E-03  0.120E-03
   2.235  0.714E-03  0.129E-03  0.115E-03  0.115E-03  0.106E-03  0.813E-05  0.120E-03  0.120E-03
   2.255  0.715E-03  0.131E-03  0.115E-03  0.115E-03  0.105E-03  0.794E-05  0.121E-03  0.121E-03
   2.275  0.717E-03  0.133E-03  0.114E-03  0.114E-03  0.103E-03  0.775E-05  0.122E-03  0.122E-03
   2.295  0.719E-03  0.136E-03  0.114E-03  0.114E-03  0.102E-03  0.758E-05  0.123E-03  0.123E-03
   2.315  0.722E-03  0.138E-03  0.114E-03  0.114E-03  0.100E-03  0.743E-05  0.124E-03  0.124E-03
   2.335  0.725E-03  0.140E-03  0.114E-03  0.114E-03  0.988E-04  0.729E-05  0.125E-03  0.125E-03
   2.355  0.729E-03  0.143E-03  0.115E-03  0.115E-03  0.974E-04  0.716E-05  0.126E-03  0.126E-03
   2.375  0.732E-03  0.146E-03  0.115E-03  0.115E-03  0.961E-04  0.706E-05  0.127E-03  0.127E-03
   2.395  0.736E-03  0.148E-03  0.115E-03  0.115E-03  0.947E-04  0.696E-05  0.128E-03  0.128E-03
   2.415  0.740E-03  0.151E-03  0.115E-03  0.115E-03  0.934E-04  0.688E-05  0.129E-03  0.129E-03
   2.435  0.744E-03  0.154E-03  0.115E-03  0.115E-03  0.921E-04  0.682E-05  0.131E-03  0.131E-03
   2.455  0.748E-03  0.156E-03  0.115E-03  0.115E-03  0.908E-04  0.676E-05  0.132E-03  0.132E-03
   2.475  0.751E-03  0.159E-03  0.115E-03  0.115E-03  0.895E-04  0.671E-05  0.133E-03  0.133E-03
   2.495  0.754E-03  0.161E-03  0.115E-03  0.115E-03  0.882E-04  0.667E-05  0.134E-03  0.134E-03
   2.515  0.756E-03  0.163E-03  0.115E-03  0.115E-03  0.869E-04  0.664E-05  0.134E-03  0.134E-03
   2.535  0.758E-03  0.165E-03  0.115E-03  0.115E-03  0.856E-04  0.661E-05  0.135E-03  0.135E-03
   2.555  0.759E-03  0.166E-03  0.115E-03  0.115E-03  0.844E-04  0.658E-05  0.136E-03  0.136E-03
   2.575  0.758E-03  0.168E-03  0.115E-03  0.115E-03  0.831E-04  0.655E-05  0.136E-03  0.136E-03
   2.595  0.757E-03  0.169E-03  0.114E-03  0.114E-03  0.818E-04  0.652E-05  0.136E-03  0.136E-03
   2.615  0.755E-03  0.169E-03  0.114E-03  0.114E-03  0.805E-04  0.648E-05  0.136E-03  0.136E-03
   2.635  0.752E-03  0.169E-03  0.113E-03  0.113E-03  0.792E-04  0.644E-05  0.136E-03  0.136E-03
   2.655  0.748E-03  0.169E-03  0.112E-03  0.112E-03  0.779E-04  0.640E-05  0.135E-03  0.135E-03
   2.675  0.743E-03  0.169E-03  0.111E-03  0.111E-03  0.765E-04  0.635E-05  0.134E-03  0.134E-03
   2.695  0.736E-03  0.168E-03  0.110E-03  0.110E-03  0.752E-04  0.630E-05  0.133E-03  0.133E-03
   2.715  0.729E-03  0.167E-03  0.109E-03  0.109E-03  0.739E-04  0.624E-05  0.132E-03  0.132E-03
   2.735  0.721E-03  0.166E-03  0.108E-03  0.108E-03  0.726E-04  0.617E-05  0.131E-03  0.131E-03
   2.755  0.712E-03  0.164E-03  0.106E-03  0.106E-03  0.714E-04  0.610E-05  0.129E-03  0.129E-03
   2.775  0.703E-03  0.162E-03  0.105E-03  0.105E-03  0.701E-04  0.603E-05  0.128E-03  0.128E-03
   2.795  0.693E-03  0.160E-03  0.103E-03  0.103E-03  0.690E-04  0.596E-05  0.126E-03  0.126E-03
   2.815  0.684E-03  0.158E-03  0.102E-03  0.102E-03  0.678E-04  0.590E-05  0.124E-03  0.124E-03
   2.835  0.674E-03  0.156E-03  0.100E-03  0.100E-03  0.668E-04  0.584E-05  0.122E-03  0.122E-03
   2.855  0.664E-03  0.154E-03  0.987E-04  0.987E-04  0.658E-04  0.578E-05  0.121E-03  0.121E-03
   2.875  0.655E-03  0.151E-03  0.973E-04  0.973E-04  0.649E-04  0.573E-05  0.119E-03  0.119E-03
   2.895  0.646E-03  0.149E-03  0.960E-04  0.960E-04  0.642E-04  0.570E-05  0.117E-03  0.117E-03
   2.915  0.638E-03  0.147E-03  0.949E-04  0.949E-04  0.635E-04  0.567E-05  0.116E-03  0.116E-03
   2.935  0.630E-03  0.145E-03  0.938E-04  0.938E-04  0.630E-04  0.567E-05  0.114E-03  0.114E-03
   2.955  0.624E-03  0.143E-03  0.929E-04  0.929E-04  0.626E-04  0.568E-05  0.113E-03  0.113E-03
   2.975  0.619E-03  0.142E-03  0.922E-04  0.922E-04  0.624E-04  0.571E-05  0.112E-03  0.112E-03
   2.995  0.615E-03  0.141E-03  0.917E-04  0.917E-04  0.623E-04  0.577E-05  0.111E-03  0.111E-03
   3.015  0.612E-03  0.140E-03  0.913E-04  0.913E-04  0.623E-04  0.584E-05  0.111E-03  0.111E-03
   3.035  0.611E-03  0.139E-03  0.912E-04  0.912E-04  0.625E-04  0.594E-05  0.110E-03  0.110E-03
   3.055  0.610E-03  0.139E-03  0.913E-04  0.913E-04  0.629E-04  0.606E-05  0.110E-03  0.110E-03
   3.075  0.612E-03  0.138E-03  0.915E-04  0.915E-04  0.635E-04  0.621E-05  0.110E-03  0.110E-03
   3.095  0.614E-03  0.138E-03  0.920E-04  0.920E-04  0.642E-04  0.638E-05  0.111E-03  0.111E-03
   3.115  0.618E-03  0.139E-03  0.927E-04  0.927E-04  0.651E-04  0.657E-05  0.111E-03  0.111E-03
   3.135  0.622E-03  0.139E-03  0.935E-04  0.935E-04  0.661E-04  0.678E-05  0.112E-03  0.112E-03
   3.155  0.628E-03  0.140E-03  0.945E-04  0.945E-04  0.673E-04  0.701E-05  0.113E-03  0.113E-03
   3.175  0.635E-03  0.141E-03  0.956E-04  0.956E-04  0.687E-04  0.725E-05  0.114E-03  0.114E-03
   3.195  0.642E-03  0.141E-03  0.969E-04  0.969E-04  0.702E-04  0.751E-05  0.115E-03  0.115E-03
   3.215  0.650E-03  0.142E-03  0.983E-04  0.983E-04  0.719E-04  0.779E-05  0.116E-03  0.116E-03
   3.235  0.659E-03  0.143E-03  0.998E-04  0.998E-04  0.738E-04  0.807E-05  0.117E-03  0.117E-03
   3.255  0.668E-03  0.144E-03  0.101E-03  0.101E-03  0.758E-04  0.836E-05  0.119E-03  0.119E-03
   3.275  0.677E-03  0.145E-03  0.103E-03  0.103E-03  0.779E-04  0.866E-05  0.120E-03  0.120E-03
   3.295  0.687E-03  0.146E-03  0.105E-03  0.105E-03  0.802E-04  0.896E-05  0.121E-03  0.121E-03
   3.315  0.697E-03  0.146E-03  0.107E-03  0.107E-03  0.827E-04  0.926E-05  0.123E-03  0.123E-03
   3.335  0.707E-03  0.147E-03  0.108E-03  0.108E-03  0.854E-04  0.957E-05  0.124E-03  0.124E-03
   3.355  0.716E-03  0.147E-03  0.110E-03  0.110E-03  0.882E-04  0.986E-05  0.125E-03  0.125E-03
   3.375  0.726E-03  0.147E-03  0.112E-03  0.112E-03  0.913E-04  0.102E-04  0.126E-03  0.126E-03
   3.395  0.736E-03  0.147E-03  0.114E-03  0.114E-03  0.945E-04  0.104E-04  0.128E-03  0.128E-03
   3.415  0.747E-03  0.147E-03  0.116E-03  0.116E-03  0.979E-04  0.107E-04  0.129E-03  0.129E-03
   3.435  0.757E-03  0.147E-03  0.119E-03  0.119E-03  0.102E-03  0.110E-04  0.130E-03  0.130E-03
   3.455  0.768E-03  0.147E-03  0.121E-03  0.121E-03  0.105E-03  0.113E-04  0.131E-03  0.131E-03
   3.475  0.779E-03  0.146E-03  0.123E-03  0.123E-03  0.110E-03  0.115E-04  0.132E-03  0.132E-03
   3.495  0.790E-03  0.145E-03  0.126E-03  0.126E-03  0.114E-03  0.118E-04  0.134E-03  0.134E-03
   3.515  0.803E-03  0.145E-03  0.128E-03  0.128E-03  0.119E-03  0.120E-04  0.135E-03  0.135E-03
   3.535  0.816E-03  0.144E-03  0.131E-03  0.131E-03  0.124E-03  0.123E-04  0.136E-03  0.136E-03
   3.555  0.830E-03  0.143E-03  0.134E-03  0.134E-03  0.129E-03  0.125E-04  0.138E-03  0.138E-03
   3.575  0.845E-03  0.143E-03  0.138E-03  0.138E-03  0.135E-03  0.128E-04  0.140E-03  0.140E-03
   3.595  0.862E-03  0.142E-03  0.141E-03  0.141E-03  0.141E-03  0.130E-04  0.142E-03  0.142E-03
   3.615  0.880E-03  0.142E-03  0.145E-03  0.145E-03  0.147E-03  0.132E-04  0.144E-03  0.144E-03
   3.635  0.900E-03  0.142E-03  0.149E-03  0.149E-03  0.153E-03  0.135E-04  0.146E-03  0.146E-03
   3.655  0.921E-03  0.142E-03  0.153E-03  0.153E-03  0.160E-03  0.137E-04  0.149E-03  0.149E-03
   3.675  0.944E-03  0.143E-03  0.158E-03  0.158E-03  0.167E-03  0.139E-04  0.152E-03  0.152E-03
   3.695  0.969E-03  0.143E-03  0.163E-03  0.163E-03  0.175E-03  0.141E-04  0.155E-03  0.155E-03
   3.715  0.996E-03  0.144E-03  0.168E-03  0.168E-03  0.183E-03  0.143E-04  0.159E-03  0.159E-03
   3.735  0.102E-02  0.146E-03  0.174E-03  0.174E-03  0.191E-03  0.145E-04  0.163E-03  0.163E-03
   3.755  0.106E-02  0.148E-03  0.180E-03  0.180E-03  0.199E-03  0.147E-04  0.167E-03  0.167E-03
   3.775  0.109E-02  0.150E-03  0.186E-03  0.186E-03  0.208E-03  0.149E-04  0.171E-03  0.171E-03
   3.795  0.112E-02  0.152E-03  0.192E-03  0.192E-03  0.217E-03  0.151E-04  0.176E-03  0.176E-03
   3.815  0.116E-02  0.155E-03  0.199E-03  0.199E-03  0.226E-03  0.153E-04  0.181E-03  0.181E-03
   3.835  0.119E-02  0.158E-03  0.206E-03  0.206E-03  0.235E-03  0.154E-04  0.187E-03  0.187E-03
   3.855  0.123E-02  0.161E-03  0.213E-03  0.213E-03  0.245E-03  0.156E-04  0.192E-03  0.192E-03
   3.875  0.127E-02  0.164E-03  0.220E-03  0.220E-03  0.254E-03  0.157E-04  0.198E-03  0.198E-03
   3.895  0.131E-02  0.168E-03  0.228E-03  0.228E-03  0.264E-03  0.158E-04  0.204E-03  0.204E-03
   3.915  0.135E-02  0.172E-03  0.235E-03  0.235E-03  0.274E-03  0.159E-04  0.210E-03  0.210E-03
   3.935  0.139E-02  0.176E-03  0.243E-03  0.243E-03  0.284E-03  0.159E-04  0.216E-03  0.216E-03
   3.955  0.144E-02  0.180E-03  0.251E-03  0.251E-03  0.294E-03  0.159E-04  0.222E-03  0.222E-03
   3.975  0.148E-02  0.184E-03  0.259E-03  0.259E-03  0.303E-03  0.159E-04  0.229E-03  0.229E-03
   3.995  0.152E-02  0.188E-03  0.266E-03  0.266E-03  0.313E-03  0.159E-04  0.235E-03  0.235E-03
   4.015  0.156E-02  0.192E-03  0.274E-03  0.274E-03  0.323E-03  0.158E-04  0.241E-03  0.241E-03
   4.035  0.160E-02  0.196E-03  0.282E-03  0.282E-03  0.333E-03  0.158E-04  0.247E-03  0.247E-03
   4.055  0.164E-02  0.200E-03  0.289E-03  0.289E-03  0.343E-03  0.156E-04  0.253E-03  0.253E-03
   4.075  0.168E-02  0.203E-03  0.297E-03  0.297E-03  0.353E-03  0.155E-04  0.259E-03  0.259E-03
   4.095  0.172E-02  0.207E-03  0.304E-03  0.304E-03  0.363E-03  0.153E-04  0.265E-03  0.265E-03
   4.115  0.176E-02  0.210E-03  0.312E-03  0.312E-03  0.372E-03  0.151E-04  0.271E-03  0.271E-03
   4.135  0.180E-02  0.214E-03  0.319E-03  0.319E-03  0.382E-03  0.149E-04  0.277E-03  0.277E-03
   4.155  0.184E-02  0.216E-03  0.326E-03  0.326E-03  0.392E-03  0.147E-04  0.282E-03  0.282E-03
   4.175  0.188E-02  0.219E-03  0.333E-03  0.333E-03  0.401E-03  0.144E-04  0.287E-03  0.287E-03
   4.195  0.191E-02  0.222E-03  0.340E-03  0.340E-03  0.410E-03  0.141E-04  0.293E-03  0.293E-03
   4.215  0.195E-02  0.224E-03  0.346E-03  0.346E-03  0.420E-03  0.139E-04  0.298E-03  0.298E-03
   4.235  0.198E-02  0.226E-03  0.353E-03  0.353E-03  0.429E-03  0.136E-04  0.302E-03  0.302E-03
   4.255  0.201E-02  0.228E-03  0.359E-03  0.359E-03  0.438E-03  0.132E-04  0.307E-03  0.307E-03
   4.275  0.204E-02  0.230E-03  0.366E-03  0.366E-03  0.447E-03  0.129E-04  0.311E-03  0.311E-03
   4.295  0.208E-02  0.232E-03  0.372E-03  0.372E-03  0.456E-03  0.126E-04  0.316E-03  0.316E-03
   4.315  0.211E-02  0.233E-03  0.378E-03  0.378E-03  0.464E-03  0.123E-04  0.320E-03  0.320E-03
   4.335  0.214E-02  0.235E-03  0.384E-03  0.384E-03  0.473E-03  0.120E-04  0.324E-03  0.324E-03
   4.355  0.216E-02  0.236E-03  0.389E-03  0.389E-03  0.481E-03  0.117E-04  0.328E-03  0.328E-03
   4.375  0.219E-02  0.238E-03  0.395E-03  0.395E-03  0.490E-03  0.114E-04  0.332E-03  0.332E-03
   4.395  0.222E-02  0.239E-03  0.401E-03  0.401E-03  0.498E-03  0.111E-04  0.336E-03  0.336E-03
   4.415  0.225E-02  0.240E-03  0.406E-03  0.406E-03  0.505E-03  0.108E-04  0.340E-03  0.340E-03
   4.435  0.227E-02  0.242E-03  0.411E-03  0.411E-03  0.513E-03  0.105E-04  0.343E-03  0.343E-03
   4.455  0.230E-02  0.243E-03  0.416E-03  0.416E-03  0.520E-03  0.103E-04  0.347E-03  0.347E-03
   4.475  0.232E-02  0.244E-03  0.421E-03  0.421E-03  0.527E-03  0.100E-04  0.350E-03  0.350E-03
   4.495  0.235E-02  0.246E-03  0.426E-03  0.426E-03  0.534E-03  0.975E-05  0.354E-03  0.354E-03
   4.515  0.237E-02  0.247E-03  0.430E-03  0.430E-03  0.540E-03  0.952E-05  0.357E-03  0.357E-03
   4.535  0.239E-02  0.248E-03  0.435E-03  0.435E-03  0.547E-03  0.931E-05  0.360E-03  0.360E-03
   4.555  0.242E-02  0.250E-03  0.439E-03  0.439E-03  0.552E-03  0.910E-05  0.363E-03  0.363E-03
   4.575  0.244E-02  0.251E-03  0.443E-03  0.443E-03  0.558E-03  0.890E-05  0.366E-03  0.366E-03
   4.595  0.246E-02  0.253E-03  0.447E-03  0.447E-03  0.563E-03  0.872E-05  0.369E-03  0.369E-03
   4.615  0.247E-02  0.255E-03  0.450E-03  0.450E-03  0.567E-03  0.855E-05  0.372E-03  0.372E-03
   4.635  0.249E-02  0.256E-03  0.453E-03  0.453E-03  0.572E-03  0.838E-05  0.375E-03  0.375E-03
   4.655  0.251E-02  0.258E-03  0.456E-03  0.456E-03  0.575E-03  0.823E-05  0.377E-03  0.377E-03
   4.675  0.252E-02  0.260E-03  0.459E-03  0.459E-03  0.579E-03  0.809E-05  0.379E-03  0.379E-03
   4.695  0.254E-02  0.261E-03  0.462E-03  0.462E-03  0.582E-03  0.795E-05  0.381E-03  0.381E-03
   4.715  0.255E-02  0.263E-03  0.464E-03  0.464E-03  0.584E-03  0.782E-05  0.383E-03  0.383E-03
   4.735  0.256E-02  0.264E-03  0.466E-03  0.466E-03  0.587E-03  0.770E-05  0.385E-03  0.385E-03
   4.755  0.257E-02  0.266E-03  0.468E-03  0.468E-03  0.589E-03  0.759E-05  0.387E-03  0.387E-03
   4.775  0.258E-02  0.267E-03  0.469E-03  0.469E-03  0.590E-03  0.749E-05  0.389E-03  0.389E-03
   4.795  0.259E-02  0.269E-03  0.471E-03  0.471E-03  0.592E-03  0.739E-05  0.390E-03  0.390E-03
   4.815  0.260E-02  0.270E-03  0.472E-03  0.472E-03  0.593E-03  0.730E-05  0.391E-03  0.391E-03
   4.835  0.260E-02  0.272E-03  0.473E-03  0.473E-03  0.594E-03  0.722E-05  0.392E-03  0.392E-03
   4.855  0.261E-02  0.273E-03  0.474E-03  0.474E-03  0.595E-03  0.715E-05  0.394E-03  0.394E-03
   4.875  0.262E-02  0.274E-03  0.475E-03  0.475E-03  0.596E-03  0.708E-05  0.395E-03  0.395E-03
   4.895  0.262E-02  0.275E-03  0.476E-03  0.476E-03  0.597E-03  0.702E-05  0.396E-03  0.396E-03
   4.915  0.263E-02  0.276E-03  0.477E-03  0.477E-03  0.597E-03  0.697E-05  0.397E-03  0.397E-03
   4.935  0.263E-02  0.277E-03  0.478E-03  0.478E-03  0.598E-03  0.693E-05  0.398E-03  0.398E-03
   4.955  0.264E-02  0.278E-03  0.479E-03  0.479E-03  0.599E-03  0.689E-05  0.399E-03  0.399E-03
   4.975  0.265E-02  0.279E-03  0.480E-03  0.480E-03  0.600E-03  0.686E-05  0.400E-03  0.400E-03
   4.995  0.265E-02  0.280E-03  0.481E-03  0.481E-03  0.602E-03  0.684E-05  0.401E-03  0.401E-03
   5.015  0.266E-02  0.282E-03  0.483E-03  0.483E-03  0.603E-03  0.683E-05  0.402E-03  0.402E-03
   5.035  0.267E-02  0.283E-03  0.484E-03  0.484E-03  0.605E-03  0.683E-05  0.404E-03  0.404E-03
   5.055  0.268E-02  0.284E-03  0.486E-03  0.486E-03  0.607E-03  0.683E-05  0.405E-03  0.405E-03
   5.075  0.269E-02  0.285E-03  0.488E-03  0.488E-03  0.609E-03  0.683E-05  0.407E-03  0.407E-03
   5.095  0.270E-02  0.287E-03  0.490E-03  0.490E-03  0.611E-03  0.685E-05  0.409E-03  0.409E-03
   5.115  0.271E-02  0.289E-03  0.492E-03  0.492E-03  0.613E-03  0.686E-05  0.410E-03  0.410E-03
   5.135  0.273E-02  0.291E-03  0.494E-03  0.494E-03  0.616E-03  0.689E-05  0.413E-03  0.413E-03
   5.155  0.274E-02  0.293E-03  0.496E-03  0.496E-03  0.618E-03  0.691E-05  0.415E-03  0.415E-03
   5.175  0.275E-02  0.295E-03  0.499E-03  0.499E-03  0.621E-03  0.694E-05  0.417E-03  0.417E-03
   5.195  0.277E-02  0.297E-03  0.501E-03  0.501E-03  0.623E-03  0.696E-05  0.419E-03  0.419E-03
   5.215  0.278E-02  0.300E-03  0.504E-03  0.504E-03  0.626E-03  0.699E-05  0.422E-03  0.422E-03
   5.235  0.280E-02  0.302E-03  0.506E-03  0.506E-03  0.628E-03  0.702E-05  0.425E-03  0.425E-03
   5.255  0.281E-02  0.305E-03  0.508E-03  0.508E-03  0.630E-03  0.705E-05  0.427E-03  0.427E-03
   5.275  0.283E-02  0.308E-03  0.511E-03  0.511E-03  0.632E-03  0.707E-05  0.430E-03  0.430E-03
   5.295  0.284E-02  0.312E-03  0.513E-03  0.513E-03  0.634E-03  0.709E-05  0.432E-03  0.432E-03
   5.315  0.286E-02  0.315E-03  0.515E-03  0.515E-03  0.635E-03  0.712E-05  0.435E-03  0.435E-03
   5.335  0.287E-02  0.319E-03  0.517E-03  0.517E-03  0.636E-03  0.714E-05  0.438E-03  0.438E-03
   5.355  0.289E-02  0.322E-03  0.519E-03  0.519E-03  0.637E-03  0.716E-05  0.440E-03  0.440E-03
   5.375  0.290E-02  0.326E-03  0.521E-03  0.521E-03  0.637E-03  0.718E-05  0.443E-03  0.443E-03
   5.395  0.291E-02  0.330E-03  0.522E-03  0.522E-03  0.637E-03  0.720E-05  0.446E-03  0.446E-03
   5.415  0.292E-02  0.335E-03  0.524E-03  0.524E-03  0.637E-03  0.722E-05  0.448E-03  0.448E-03
   5.435  0.293E-02  0.339E-03  0.525E-03  0.525E-03  0.637E-03  0.725E-05  0.451E-03  0.451E-03
   5.455  0.295E-02  0.343E-03  0.526E-03  0.526E-03  0.636E-03  0.728E-05  0.453E-03  0.453E-03
   5.475  0.296E-02  0.348E-03  0.527E-03  0.527E-03  0.635E-03  0.732E-05  0.456E-03  0.456E-03
   5.495  0.297E-02  0.353E-03  0.529E-03  0.529E-03  0.634E-03  0.737E-05  0.458E-03  0.458E-03
   5.515  0.298E-02  0.357E-03  0.530E-03  0.530E-03  0.633E-03  0.744E-05  0.461E-03  0.461E-03
   5.535  0.299E-02  0.363E-03  0.531E-03  0.531E-03  0.632E-03  0.752E-05  0.464E-03  0.464E-03
   5.555  0.300E-02  0.368E-03  0.532E-03  0.532E-03  0.631E-03  0.763E-05  0.466E-03  0.466E-03
   5.575  0.302E-02  0.373E-03  0.534E-03  0.534E-03  0.630E-03  0.776E-05  0.470E-03  0.470E-03
   5.595  0.303E-02  0.379E-03  0.535E-03  0.535E-03  0.629E-03  0.791E-05  0.473E-03  0.473E-03
   5.615  0.305E-02  0.385E-03  0.537E-03  0.537E-03  0.628E-03  0.811E-05  0.476E-03  0.476E-03
   5.635  0.307E-02  0.391E-03  0.539E-03  0.539E-03  0.628E-03  0.834E-05  0.480E-03  0.480E-03
   5.655  0.308E-02  0.398E-03  0.541E-03  0.541E-03  0.627E-03  0.862E-05  0.484E-03  0.484E-03
   5.675  0.311E-02  0.405E-03  0.544E-03  0.544E-03  0.627E-03  0.894E-05  0.488E-03  0.488E-03
   5.695  0.313E-02  0.413E-03  0.547E-03  0.547E-03  0.627E-03  0.933E-05  0.493E-03  0.493E-03
   5.715  0.316E-02  0.421E-03  0.550E-03  0.550E-03  0.628E-03  0.978E-05  0.499E-03  0.499E-03
   5.735  0.318E-02  0.430E-03  0.554E-03  0.554E-03  0.628E-03  0.103E-04  0.504E-03  0.504E-03
   5.755  0.322E-02  0.439E-03  0.558E-03  0.558E-03  0.629E-03  0.109E-04  0.510E-03  0.510E-03
   5.775  0.325E-02  0.449E-03  0.562E-03  0.562E-03  0.630E-03  0.116E-04  0.517E-03  0.517E-03
   5.795  0.329E-02  0.460E-03  0.567E-03  0.567E-03  0.631E-03  0.124E-04  0.524E-03  0.524E-03
   5.815  0.333E-02  0.472E-03  0.572E-03  0.572E-03  0.632E-03  0.133E-04  0.532E-03  0.532E-03
   5.835  0.337E-02  0.485E-03  0.578E-03  0.578E-03  0.634E-03  0.143E-04  0.541E-03  0.541E-03
   5.855  0.342E-02  0.499E-03  0.584E-03  0.584E-03  0.635E-03  0.155E-04  0.550E-03  0.550E-03
   5.875  0.347E-02  0.513E-03  0.590E-03  0.590E-03  0.637E-03  0.169E-04  0.559E-03  0.559E-03
   5.895  0.352E-02  0.529E-03  0.597E-03  0.597E-03  0.638E-03  0.184E-04  0.570E-03  0.570E-03
   5.915  0.358E-02  0.546E-03  0.604E-03  0.604E-03  0.640E-03  0.200E-04  0.581E-03  0.581E-03
   5.935  0.364E-02  0.564E-03  0.612E-03  0.612E-03  0.641E-03  0.219E-04  0.593E-03  0.593E-03
   5.955  0.370E-02  0.582E-03  0.620E-03  0.620E-03  0.643E-03  0.241E-04  0.605E-03  0.605E-03
   5.975  0.377E-02  0.603E-03  0.629E-03  0.629E-03  0.644E-03  0.264E-04  0.618E-03  0.618E-03
   5.995  0.384E-02  0.624E-03  0.638E-03  0.638E-03  0.646E-03  0.291E-04  0.632E-03  0.632E-03
   6.015  0.391E-02  0.646E-03  0.647E-03  0.647E-03  0.647E-03  0.320E-04  0.647E-03  0.647E-03
   6.035  0.399E-02  0.670E-03  0.657E-03  0.657E-03  0.649E-03  0.353E-04  0.662E-03  0.662E-03
   6.055  0.407E-02  0.694E-03  0.667E-03  0.667E-03  0.651E-03  0.389E-04  0.678E-03  0.678E-03
   6.075  0.416E-02  0.720E-03  0.678E-03  0.678E-03  0.652E-03  0.429E-04  0.694E-03  0.694E-03
   6.095  0.425E-02  0.746E-03  0.689E-03  0.689E-03  0.654E-03  0.473E-04  0.712E-03  0.712E-03
   6.115  0.434E-02  0.774E-03  0.700E-03  0.700E-03  0.656E-03  0.522E-04  0.730E-03  0.730E-03
   6.135  0.444E-02  0.802E-03  0.712E-03  0.712E-03  0.658E-03  0.575E-04  0.748E-03  0.748E-03
   6.155  0.454E-02  0.831E-03  0.725E-03  0.725E-03  0.661E-03  0.633E-04  0.767E-03  0.767E-03
   6.175  0.464E-02  0.861E-03  0.737E-03  0.737E-03  0.663E-03  0.697E-04  0.787E-03  0.787E-03
   6.195  0.475E-02  0.892E-03  0.750E-03  0.750E-03  0.666E-03  0.765E-04  0.807E-03  0.807E-03
   6.215  0.486E-02  0.923E-03  0.764E-03  0.764E-03  0.668E-03  0.840E-04  0.827E-03  0.827E-03
   6.235  0.497E-02  0.955E-03  0.778E-03  0.778E-03  0.671E-03  0.921E-04  0.848E-03  0.848E-03
   6.255  0.508E-02  0.987E-03  0.792E-03  0.792E-03  0.674E-03  0.101E-03  0.870E-03  0.870E-03
   6.275  0.520E-02  0.102E-02  0.806E-03  0.806E-03  0.678E-03  0.110E-03  0.891E-03  0.891E-03
   6.295  0.532E-02  0.105E-02  0.820E-03  0.820E-03  0.681E-03  0.120E-03  0.913E-03  0.913E-03
   6.315  0.544E-02  0.108E-02  0.835E-03  0.835E-03  0.684E-03  0.131E-03  0.935E-03  0.935E-03
   6.335  0.556E-02  0.112E-02  0.849E-03  0.849E-03  0.688E-03  0.143E-03  0.956E-03  0.956E-03
   6.355  0.568E-02  0.115E-02  0.863E-03  0.863E-03  0.691E-03  0.155E-03  0.978E-03  0.978E-03
   6.375  0.580E-02  0.118E-02  0.878E-03  0.878E-03  0.694E-03  0.168E-03  0.100E-02  0.100E-02
   6.395  0.592E-02  0.122E-02  0.892E-03  0.892E-03  0.697E-03  0.182E-03  0.102E-02  0.102E-02
   6.415  0.605E-02  0.125E-02  0.906E-03  0.906E-03  0.700E-03  0.197E-03  0.104E-02  0.104E-02
   6.435  0.617E-02  0.128E-02  0.920E-03  0.920E-03  0.703E-03  0.212E-03  0.106E-02  0.106E-02
   6.455  0.629E-02  0.131E-02  0.934E-03  0.934E-03  0.705E-03  0.228E-03  0.109E-02  0.109E-02
   6.475  0.641E-02  0.135E-02  0.947E-03  0.947E-03  0.707E-03  0.245E-03  0.111E-02  0.111E-02
   6.495  0.653E-02  0.138E-02  0.960E-03  0.960E-03  0.709E-03  0.263E-03  0.113E-02  0.113E-02
   6.515  0.665E-02  0.141E-02  0.973E-03  0.973E-03  0.710E-03  0.281E-03  0.115E-02  0.115E-02
   6.535  0.676E-02  0.144E-02  0.986E-03  0.986E-03  0.711E-03  0.300E-03  0.117E-02  0.117E-02
   6.555  0.688E-02  0.147E-02  0.998E-03  0.998E-03  0.712E-03  0.320E-03  0.119E-02  0.119E-02
   6.575  0.699E-02  0.151E-02  0.101E-02  0.101E-02  0.713E-03  0.340E-03  0.121E-02  0.121E-02
   6.595  0.711E-02  0.154E-02  0.102E-02  0.102E-02  0.713E-03  0.361E-03  0.123E-02  0.123E-02
   6.615  0.722E-02  0.157E-02  0.103E-02  0.103E-02  0.713E-03  0.382E-03  0.125E-02  0.125E-02
   6.635  0.734E-02  0.160E-02  0.105E-02  0.105E-02  0.714E-03  0.404E-03  0.127E-02  0.127E-02
   6.655  0.745E-02  0.163E-02  0.106E-02  0.106E-02  0.714E-03  0.426E-03  0.129E-02  0.129E-02
   6.675  0.757E-02  0.166E-02  0.107E-02  0.107E-02  0.715E-03  0.448E-03  0.130E-02  0.130E-02
   6.695  0.768E-02  0.169E-02  0.108E-02  0.108E-02  0.716E-03  0.471E-03  0.132E-02  0.132E-02
   6.715  0.779E-02  0.172E-02  0.109E-02  0.109E-02  0.717E-03  0.493E-03  0.134E-02  0.134E-02
   6.735  0.791E-02  0.174E-02  0.110E-02  0.110E-02  0.719E-03  0.516E-03  0.136E-02  0.136E-02
   6.755  0.802E-02  0.177E-02  0.112E-02  0.112E-02  0.721E-03  0.539E-03  0.138E-02  0.138E-02
   6.775  0.814E-02  0.180E-02  0.113E-02  0.113E-02  0.724E-03  0.561E-03  0.140E-02  0.140E-02
   6.795  0.825E-02  0.183E-02  0.114E-02  0.114E-02  0.728E-03  0.584E-03  0.142E-02  0.142E-02
   6.815  0.836E-02  0.185E-02  0.115E-02  0.115E-02  0.733E-03  0.606E-03  0.143E-02  0.143E-02
   6.835  0.848E-02  0.188E-02  0.117E-02  0.117E-02  0.738E-03  0.627E-03  0.145E-02  0.145E-02
   6.855  0.859E-02  0.190E-02  0.118E-02  0.118E-02  0.745E-03  0.648E-03  0.147E-02  0.147E-02
   6.875  0.870E-02  0.193E-02  0.119E-02  0.119E-02  0.752E-03  0.669E-03  0.149E-02  0.149E-02
   6.895  0.881E-02  0.195E-02  0.121E-02  0.121E-02  0.760E-03  0.688E-03  0.150E-02  0.150E-02
   6.915  0.892E-02  0.197E-02  0.122E-02  0.122E-02  0.769E-03  0.708E-03  0.152E-02  0.152E-02
   6.935  0.902E-02  0.199E-02  0.123E-02  0.123E-02  0.778E-03  0.726E-03  0.153E-02  0.153E-02
   6.955  0.913E-02  0.201E-02  0.124E-02  0.124E-02  0.789E-03  0.743E-03  0.155E-02  0.155E-02
   6.975  0.922E-02  0.202E-02  0.126E-02  0.126E-02  0.799E-03  0.760E-03  0.156E-02  0.156E-02
   6.995  0.932E-02  0.204E-02  0.127E-02  0.127E-02  0.810E-03  0.776E-03  0.158E-02  0.158E-02
   7.015  0.941E-02  0.205E-02  0.128E-02  0.128E-02  0.822E-03  0.791E-03  0.159E-02  0.159E-02
   7.035  0.949E-02  0.206E-02  0.129E-02  0.129E-02  0.833E-03  0.805E-03  0.160E-02  0.160E-02
   7.055  0.957E-02  0.207E-02  0.130E-02  0.130E-02  0.844E-03  0.819E-03  0.161E-02  0.161E-02
   7.075  0.964E-02  0.208E-02  0.131E-02  0.131E-02  0.856E-03  0.831E-03  0.162E-02  0.162E-02
   7.095  0.970E-02  0.209E-02  0.132E-02  0.132E-02  0.866E-03  0.843E-03  0.163E-02  0.163E-02
   7.115  0.976E-02  0.209E-02  0.133E-02  0.133E-02  0.876E-03  0.854E-03  0.164E-02  0.164E-02
   7.135  0.980E-02  0.209E-02  0.134E-02  0.134E-02  0.886E-03  0.864E-03  0.164E-02  0.164E-02
   7.155  0.985E-02  0.210E-02  0.135E-02  0.135E-02  0.895E-03  0.874E-03  0.165E-02  0.165E-02
   7.175  0.988E-02  0.210E-02  0.135E-02  0.135E-02  0.903E-03  0.883E-03  0.165E-02  0.165E-02
   7.195  0.991E-02  0.210E-02  0.135E-02  0.135E-02  0.910E-03  0.891E-03  0.165E-02  0.165E-02
   7.215  0.993E-02  0.209E-02  0.136E-02  0.136E-02  0.916E-03  0.899E-03  0.165E-02  0.165E-02
   7.235  0.994E-02  0.209E-02  0.136E-02  0.136E-02  0.920E-03  0.906E-03  0.165E-02  0.165E-02
   7.255  0.995E-02  0.209E-02  0.136E-02  0.136E-02  0.925E-03  0.913E-03  0.165E-02  0.165E-02
   7.275  0.995E-02  0.208E-02  0.136E-02  0.136E-02  0.928E-03  0.919E-03  0.165E-02  0.165E-02
   7.295  0.995E-02  0.208E-02  0.136E-02  0.136E-02  0.930E-03  0.925E-03  0.165E-02  0.165E-02
   7.315  0.994E-02  0.207E-02  0.136E-02  0.136E-02  0.931E-03  0.931E-03  0.164E-02  0.164E-02
   7.335  0.993E-02  0.207E-02  0.136E-02  0.136E-02  0.932E-03  0.937E-03  0.164E-02  0.164E-02
   7.355  0.992E-02  0.206E-02  0.136E-02  0.136E-02  0.932E-03  0.942E-03  0.164E-02  0.164E-02
   7.375  0.990E-02  0.205E-02  0.135E-02  0.135E-02  0.932E-03  0.947E-03  0.163E-02  0.163E-02
   7.395  0.989E-02  0.205E-02  0.135E-02  0.135E-02  0.932E-03  0.952E-03  0.163E-02  0.163E-02
   7.415  0.987E-02  0.204E-02  0.135E-02  0.135E-02  0.932E-03  0.957E-03  0.162E-02  0.162E-02
   7.435  0.985E-02  0.203E-02  0.134E-02  0.134E-02  0.932E-03  0.962E-03  0.162E-02  0.162E-02
   7.455  0.984E-02  0.202E-02  0.134E-02  0.134E-02  0.932E-03  0.966E-03  0.161E-02  0.161E-02
   7.475  0.982E-02  0.202E-02  0.134E-02  0.134E-02  0.933E-03  0.971E-03  0.161E-02  0.161E-02
   7.495  0.981E-02  0.201E-02  0.134E-02  0.134E-02  0.934E-03  0.975E-03  0.161E-02  0.161E-02
   7.515  0.980E-02  0.200E-02  0.134E-02  0.134E-02  0.936E-03  0.979E-03  0.160E-02  0.160E-02
   7.535  0.979E-02  0.200E-02  0.134E-02  0.134E-02  0.939E-03  0.983E-03  0.160E-02  0.160E-02
   7.555  0.979E-02  0.199E-02  0.134E-02  0.134E-02  0.943E-03  0.987E-03  0.160E-02  0.160E-02
   7.575  0.978E-02  0.198E-02  0.134E-02  0.134E-02  0.948E-03  0.992E-03  0.159E-02  0.159E-02
   7.595  0.979E-02  0.198E-02  0.134E-02  0.134E-02  0.954E-03  0.996E-03  0.159E-02  0.159E-02
   7.615  0.979E-02  0.197E-02  0.134E-02  0.134E-02  0.961E-03  0.100E-02  0.159E-02  0.159E-02
   7.635  0.980E-02  0.196E-02  0.134E-02  0.134E-02  0.969E-03  0.100E-02  0.159E-02  0.159E-02
   7.655  0.981E-02  0.196E-02  0.134E-02  0.134E-02  0.978E-03  0.101E-02  0.159E-02  0.159E-02
   7.675  0.982E-02  0.195E-02  0.135E-02  0.135E-02  0.988E-03  0.101E-02  0.159E-02  0.159E-02
   7.695  0.984E-02  0.194E-02  0.135E-02  0.135E-02  0.998E-03  0.102E-02  0.159E-02  0.159E-02
   7.715  0.986E-02  0.194E-02  0.136E-02  0.136E-02  0.101E-02  0.102E-02  0.159E-02  0.159E-02
   7.735  0.988E-02  0.193E-02  0.136E-02  0.136E-02  0.102E-02  0.103E-02  0.159E-02  0.159E-02
   7.755  0.990E-02  0.192E-02  0.137E-02  0.137E-02  0.103E-02  0.104E-02  0.159E-02  0.159E-02
   7.775  0.991E-02  0.191E-02  0.137E-02  0.137E-02  0.104E-02  0.104E-02  0.159E-02  0.159E-02
   7.795  0.993E-02  0.191E-02  0.137E-02  0.137E-02  0.106E-02  0.105E-02  0.159E-02  0.159E-02
   7.815  0.995E-02  0.190E-02  0.138E-02  0.138E-02  0.107E-02  0.106E-02  0.159E-02  0.159E-02
   7.835  0.997E-02  0.189E-02  0.138E-02  0.138E-02  0.108E-02  0.106E-02  0.159E-02  0.159E-02
   7.855  0.999E-02  0.188E-02  0.139E-02  0.139E-02  0.109E-02  0.107E-02  0.159E-02  0.159E-02
   7.875  0.100E-01  0.188E-02  0.139E-02  0.139E-02  0.110E-02  0.108E-02  0.158E-02  0.158E-02
   7.895  0.100E-01  0.187E-02  0.139E-02  0.139E-02  0.111E-02  0.109E-02  0.158E-02  0.158E-02
   7.915  0.100E-01  0.186E-02  0.139E-02  0.139E-02  0.111E-02  0.110E-02  0.158E-02  0.158E-02
   7.935  0.100E-01  0.185E-02  0.139E-02  0.139E-02  0.112E-02  0.111E-02  0.158E-02  0.158E-02
   7.955  0.100E-01  0.184E-02  0.139E-02  0.139E-02  0.113E-02  0.112E-02  0.157E-02  0.157E-02
   7.975  0.100E-01  0.183E-02  0.139E-02  0.139E-02  0.113E-02  0.113E-02  0.157E-02  0.157E-02
   7.995  0.100E-01  0.182E-02  0.139E-02  0.139E-02  0.113E-02  0.114E-02  0.156E-02  0.156E-02
   8.015  0.100E-01  0.181E-02  0.139E-02  0.139E-02  0.114E-02  0.115E-02  0.156E-02  0.156E-02
   8.035  0.999E-02  0.180E-02  0.139E-02  0.139E-02  0.114E-02  0.117E-02  0.155E-02  0.155E-02
   8.055  0.997E-02  0.179E-02  0.138E-02  0.138E-02  0.114E-02  0.118E-02  0.155E-02  0.155E-02
   8.075  0.995E-02  0.178E-02  0.138E-02  0.138E-02  0.114E-02  0.119E-02  0.154E-02  0.154E-02
   8.095  0.992E-02  0.177E-02  0.137E-02  0.137E-02  0.114E-02  0.120E-02  0.153E-02  0.153E-02
   8.115  0.989E-02  0.176E-02  0.137E-02  0.137E-02  0.114E-02  0.121E-02  0.152E-02  0.152E-02
   8.135  0.986E-02  0.175E-02  0.136E-02  0.136E-02  0.113E-02  0.123E-02  0.152E-02  0.152E-02
   8.155  0.983E-02  0.173E-02  0.136E-02  0.136E-02  0.113E-02  0.124E-02  0.151E-02  0.151E-02
   8.175  0.980E-02  0.172E-02  0.135E-02  0.135E-02  0.113E-02  0.125E-02  0.150E-02  0.150E-02
   8.195  0.977E-02  0.171E-02  0.135E-02  0.135E-02  0.113E-02  0.126E-02  0.149E-02  0.149E-02
   8.215  0.974E-02  0.169E-02  0.134E-02  0.134E-02  0.113E-02  0.127E-02  0.148E-02  0.148E-02
   8.235  0.970E-02  0.168E-02  0.133E-02  0.133E-02  0.113E-02  0.129E-02  0.147E-02  0.147E-02
   8.255  0.967E-02  0.166E-02  0.133E-02  0.133E-02  0.113E-02  0.130E-02  0.146E-02  0.146E-02
   8.275  0.965E-02  0.165E-02  0.133E-02  0.133E-02  0.113E-02  0.131E-02  0.145E-02  0.145E-02
   8.295  0.962E-02  0.163E-02  0.132E-02  0.132E-02  0.114E-02  0.132E-02  0.144E-02  0.144E-02
   8.315  0.960E-02  0.161E-02  0.132E-02  0.132E-02  0.114E-02  0.134E-02  0.144E-02  0.144E-02
   8.335  0.958E-02  0.160E-02  0.132E-02  0.132E-02  0.114E-02  0.135E-02  0.143E-02  0.143E-02
   8.355  0.957E-02  0.158E-02  0.131E-02  0.131E-02  0.115E-02  0.136E-02  0.142E-02  0.142E-02
   8.375  0.956E-02  0.157E-02  0.131E-02  0.131E-02  0.116E-02  0.138E-02  0.141E-02  0.141E-02
   8.395  0.955E-02  0.155E-02  0.131E-02  0.131E-02  0.117E-02  0.139E-02  0.141E-02  0.141E-02
   8.415  0.955E-02  0.154E-02  0.131E-02  0.131E-02  0.118E-02  0.141E-02  0.140E-02  0.140E-02
   8.435  0.956E-02  0.153E-02  0.131E-02  0.131E-02  0.118E-02  0.143E-02  0.140E-02  0.140E-02
   8.455  0.957E-02  0.151E-02  0.131E-02  0.131E-02  0.120E-02  0.145E-02  0.139E-02  0.139E-02
   8.475  0.958E-02  0.150E-02  0.132E-02  0.132E-02  0.121E-02  0.147E-02  0.139E-02  0.139E-02
   8.495  0.960E-02  0.149E-02  0.132E-02  0.132E-02  0.122E-02  0.149E-02  0.139E-02  0.139E-02
   8.515  0.963E-02  0.148E-02  0.132E-02  0.132E-02  0.123E-02  0.152E-02  0.138E-02  0.138E-02
   8.535  0.965E-02  0.146E-02  0.132E-02  0.132E-02  0.124E-02  0.155E-02  0.138E-02  0.138E-02
   8.555  0.969E-02  0.145E-02  0.133E-02  0.133E-02  0.125E-02  0.157E-02  0.138E-02  0.138E-02
   8.575  0.972E-02  0.145E-02  0.133E-02  0.133E-02  0.126E-02  0.161E-02  0.138E-02  0.138E-02
   8.595  0.976E-02  0.144E-02  0.133E-02  0.133E-02  0.127E-02  0.164E-02  0.137E-02  0.137E-02
   8.615  0.980E-02  0.143E-02  0.133E-02  0.133E-02  0.128E-02  0.168E-02  0.137E-02  0.137E-02
   8.635  0.984E-02  0.142E-02  0.134E-02  0.134E-02  0.128E-02  0.172E-02  0.137E-02  0.137E-02
   8.655  0.988E-02  0.142E-02  0.134E-02  0.134E-02  0.129E-02  0.176E-02  0.137E-02  0.137E-02
   8.675  0.992E-02  0.141E-02  0.134E-02  0.134E-02  0.130E-02  0.180E-02  0.137E-02  0.137E-02
   8.695  0.996E-02  0.141E-02  0.134E-02  0.134E-02  0.130E-02  0.185E-02  0.137E-02  0.137E-02
   8.715  0.100E-01  0.140E-02  0.134E-02  0.134E-02  0.130E-02  0.190E-02  0.136E-02  0.136E-02
   8.735  0.100E-01  0.140E-02  0.134E-02  0.134E-02  0.130E-02  0.195E-02  0.136E-02  0.136E-02
   8.755  0.101E-01  0.139E-02  0.134E-02  0.134E-02  0.130E-02  0.200E-02  0.136E-02  0.136E-02
   8.775  0.101E-01  0.139E-02  0.133E-02  0.133E-02  0.130E-02  0.206E-02  0.135E-02  0.135E-02
   8.795  0.102E-01  0.138E-02  0.133E-02  0.133E-02  0.130E-02  0.212E-02  0.135E-02  0.135E-02
   8.815  0.102E-01  0.138E-02  0.133E-02  0.133E-02  0.130E-02  0.219E-02  0.135E-02  0.135E-02
   8.835  0.102E-01  0.137E-02  0.132E-02  0.132E-02  0.129E-02  0.225E-02  0.134E-02  0.134E-02
   8.855  0.103E-01  0.136E-02  0.132E-02  0.132E-02  0.129E-02  0.232E-02  0.134E-02  0.134E-02
   8.875  0.103E-01  0.136E-02  0.131E-02  0.131E-02  0.128E-02  0.239E-02  0.133E-02  0.133E-02
   8.895  0.104E-01  0.135E-02  0.131E-02  0.131E-02  0.128E-02  0.246E-02  0.132E-02  0.132E-02
   8.915  0.104E-01  0.134E-02  0.130E-02  0.130E-02  0.127E-02  0.254E-02  0.132E-02  0.132E-02
   8.935  0.104E-01  0.134E-02  0.129E-02  0.129E-02  0.127E-02  0.262E-02  0.131E-02  0.131E-02
   8.955  0.105E-01  0.133E-02  0.129E-02  0.129E-02  0.127E-02  0.270E-02  0.130E-02  0.130E-02
   8.975  0.105E-01  0.132E-02  0.128E-02  0.128E-02  0.126E-02  0.278E-02  0.130E-02  0.130E-02
   8.995  0.106E-01  0.131E-02  0.128E-02  0.128E-02  0.126E-02  0.287E-02  0.129E-02  0.129E-02
   9.015  0.106E-01  0.130E-02  0.127E-02  0.127E-02  0.126E-02  0.296E-02  0.128E-02  0.128E-02
   9.035  0.107E-01  0.129E-02  0.127E-02  0.127E-02  0.126E-02  0.306E-02  0.128E-02  0.128E-02
   9.055  0.108E-01  0.128E-02  0.127E-02  0.127E-02  0.126E-02  0.315E-02  0.127E-02  0.127E-02
   9.075  0.108E-01  0.127E-02  0.126E-02  0.126E-02  0.126E-02  0.325E-02  0.126E-02  0.126E-02
   9.095  0.109E-01  0.125E-02  0.126E-02  0.126E-02  0.126E-02  0.336E-02  0.126E-02  0.126E-02
   9.115  0.110E-01  0.124E-02  0.126E-02  0.126E-02  0.127E-02  0.346E-02  0.125E-02  0.125E-02
   9.135  0.111E-01  0.123E-02  0.126E-02  0.126E-02  0.127E-02  0.357E-02  0.125E-02  0.125E-02
   9.155  0.112E-01  0.122E-02  0.126E-02  0.126E-02  0.128E-02  0.368E-02  0.124E-02  0.124E-02
   9.175  0.113E-01  0.121E-02  0.126E-02  0.126E-02  0.128E-02  0.380E-02  0.124E-02  0.124E-02
   9.195  0.114E-01  0.120E-02  0.126E-02  0.126E-02  0.129E-02  0.392E-02  0.123E-02  0.123E-02
   9.215  0.115E-01  0.119E-02  0.126E-02  0.126E-02  0.130E-02  0.404E-02  0.123E-02  0.123E-02
   9.235  0.116E-01  0.118E-02  0.126E-02  0.126E-02  0.131E-02  0.416E-02  0.123E-02  0.123E-02
   9.255  0.117E-01  0.117E-02  0.126E-02  0.126E-02  0.132E-02  0.429E-02  0.122E-02  0.122E-02
   9.275  0.119E-01  0.116E-02  0.126E-02  0.126E-02  0.133E-02  0.442E-02  0.122E-02  0.122E-02
   9.295  0.120E-01  0.115E-02  0.127E-02  0.127E-02  0.134E-02  0.455E-02  0.122E-02  0.122E-02
   9.315  0.121E-01  0.114E-02  0.127E-02  0.127E-02  0.134E-02  0.469E-02  0.122E-02  0.122E-02
   9.335  0.123E-01  0.113E-02  0.127E-02  0.127E-02  0.135E-02  0.482E-02  0.121E-02  0.121E-02
   9.355  0.124E-01  0.113E-02  0.127E-02  0.127E-02  0.136E-02  0.496E-02  0.121E-02  0.121E-02
   9.375  0.126E-01  0.112E-02  0.127E-02  0.127E-02  0.136E-02  0.510E-02  0.121E-02  0.121E-02
   9.395  0.127E-01  0.112E-02  0.127E-02  0.127E-02  0.137E-02  0.523E-02  0.121E-02  0.121E-02
   9.415  0.128E-01  0.111E-02  0.127E-02  0.127E-02  0.137E-02  0.537E-02  0.121E-02  0.121E-02
   9.435  0.130E-01  0.111E-02  0.127E-02  0.127E-02  0.137E-02  0.550E-02  0.121E-02  0.121E-02
   9.455  0.131E-01  0.111E-02  0.127E-02  0.127E-02  0.138E-02  0.564E-02  0.121E-02  0.121E-02
   9.475  0.132E-01  0.110E-02  0.127E-02  0.127E-02  0.137E-02  0.577E-02  0.121E-02  0.121E-02
   9.495  0.133E-01  0.110E-02  0.127E-02  0.127E-02  0.137E-02  0.590E-02  0.120E-02  0.120E-02
   9.515  0.134E-01  0.110E-02  0.127E-02  0.127E-02  0.137E-02  0.603E-02  0.120E-02  0.120E-02
   9.535  0.136E-01  0.110E-02  0.127E-02  0.127E-02  0.137E-02  0.615E-02  0.120E-02  0.120E-02
   9.555  0.137E-01  0.110E-02  0.126E-02  0.126E-02  0.136E-02  0.627E-02  0.120E-02  0.120E-02
   9.575  0.138E-01  0.111E-02  0.126E-02  0.126E-02  0.136E-02  0.639E-02  0.120E-02  0.120E-02
   9.595  0.139E-01  0.111E-02  0.126E-02  0.126E-02  0.135E-02  0.650E-02  0.120E-02  0.120E-02
   9.615  0.140E-01  0.111E-02  0.125E-02  0.125E-02  0.134E-02  0.661E-02  0.120E-02  0.120E-02
   9.635  0.140E-01  0.111E-02  0.125E-02  0.125E-02  0.134E-02  0.671E-02  0.120E-02  0.120E-02
   9.655  0.141E-01  0.111E-02  0.125E-02  0.125E-02  0.133E-02  0.681E-02  0.119E-02  0.119E-02
   9.675  0.142E-01  0.111E-02  0.124E-02  0.124E-02  0.132E-02  0.690E-02  0.119E-02  0.119E-02
   9.695  0.143E-01  0.112E-02  0.124E-02  0.124E-02  0.132E-02  0.699E-02  0.119E-02  0.119E-02
   9.715  0.144E-01  0.112E-02  0.124E-02  0.124E-02  0.131E-02  0.707E-02  0.119E-02  0.119E-02
   9.735  0.144E-01  0.112E-02  0.124E-02  0.124E-02  0.131E-02  0.715E-02  0.119E-02  0.119E-02
   9.755  0.145E-01  0.112E-02  0.124E-02  0.124E-02  0.130E-02  0.722E-02  0.119E-02  0.119E-02
   9.775  0.146E-01  0.113E-02  0.124E-02  0.124E-02  0.130E-02  0.729E-02  0.119E-02  0.119E-02
   9.795  0.146E-01  0.113E-02  0.124E-02  0.124E-02  0.130E-02  0.735E-02  0.119E-02  0.119E-02
   9.815  0.147E-01  0.113E-02  0.124E-02  0.124E-02  0.130E-02  0.742E-02  0.119E-02  0.119E-02
   9.835  0.148E-01  0.113E-02  0.124E-02  0.124E-02  0.130E-02  0.748E-02  0.120E-02  0.120E-02
   9.855  0.148E-01  0.114E-02  0.124E-02  0.124E-02  0.130E-02  0.753E-02  0.120E-02  0.120E-02
   9.875  0.149E-01  0.114E-02  0.124E-02  0.124E-02  0.131E-02  0.759E-02  0.120E-02  0.120E-02
   9.895  0.150E-01  0.114E-02  0.125E-02  0.125E-02  0.131E-02  0.764E-02  0.120E-02  0.120E-02
   9.915  0.151E-01  0.114E-02  0.125E-02  0.125E-02  0.131E-02  0.770E-02  0.121E-02  0.121E-02
   9.935  0.151E-01  0.114E-02  0.125E-02  0.125E-02  0.132E-02  0.775E-02  0.121E-02  0.121E-02
   9.955  0.152E-01  0.115E-02  0.126E-02  0.126E-02  0.133E-02  0.780E-02  0.121E-02  0.121E-02
   9.975  0.153E-01  0.115E-02  0.126E-02  0.126E-02  0.133E-02  0.786E-02  0.122E-02  0.122E-02
   9.995  0.154E-01  0.115E-02  0.127E-02  0.127E-02  0.134E-02  0.791E-02  0.122E-02  0.122E-02
  10.015  0.154E-01  0.115E-02  0.127E-02  0.127E-02  0.135E-02  0.796E-02  0.122E-02  0.122E-02
  10.035  0.155E-01  0.115E-02  0.128E-02  0.128E-02  0.135E-02  0.802E-02  0.123E-02  0.123E-02
  10.055  0.156E-01  0.115E-02  0.128E-02  0.128E-02  0.136E-02  0.807E-02  0.123E-02  0.123E-02
  10.075  0.157E-01  0.115E-02  0.128E-02  0.128E-02  0.136E-02  0.813E-02  0.123E-02  0.123E-02
  10.095  0.158E-01  0.116E-02  0.129E-02  0.129E-02  0.137E-02  0.819E-02  0.123E-02  0.123E-02
  10.115  0.158E-01  0.116E-02  0.129E-02  0.129E-02  0.137E-02  0.824E-02  0.124E-02  0.124E-02
  10.135  0.159E-01  0.116E-02  0.129E-02  0.129E-02  0.137E-02  0.830E-02  0.124E-02  0.124E-02
  10.155  0.160E-01  0.116E-02  0.129E-02  0.129E-02  0.137E-02  0.836E-02  0.124E-02  0.124E-02
  10.175  0.160E-01  0.116E-02  0.129E-02  0.129E-02  0.137E-02  0.842E-02  0.124E-02  0.124E-02
  10.195  0.161E-01  0.116E-02  0.129E-02  0.129E-02  0.137E-02  0.847E-02  0.124E-02  0.124E-02
  10.215  0.161E-01  0.117E-02  0.129E-02  0.129E-02  0.137E-02  0.853E-02  0.124E-02  0.124E-02
  10.235  0.162E-01  0.117E-02  0.129E-02  0.129E-02  0.136E-02  0.858E-02  0.124E-02  0.124E-02
  10.255  0.162E-01  0.117E-02  0.129E-02  0.129E-02  0.136E-02  0.863E-02  0.124E-02  0.124E-02
  10.275  0.162E-01  0.117E-02  0.128E-02  0.128E-02  0.135E-02  0.868E-02  0.124E-02  0.124E-02
  10.295  0.163E-01  0.117E-02  0.128E-02  0.128E-02  0.134E-02  0.872E-02  0.124E-02  0.124E-02
  10.315  0.163E-01  0.117E-02  0.127E-02  0.127E-02  0.134E-02  0.877E-02  0.123E-02  0.123E-02
  10.335  0.163E-01  0.117E-02  0.127E-02  0.127E-02  0.133E-02  0.881E-02  0.123E-02  0.123E-02
  10.355  0.163E-01  0.118E-02  0.127E-02  0.127E-02  0.132E-02  0.884E-02  0.123E-02  0.123E-02
  10.375  0.163E-01  0.118E-02  0.126E-02  0.126E-02  0.131E-02  0.888E-02  0.123E-02  0.123E-02
  10.395  0.164E-01  0.118E-02  0.126E-02  0.126E-02  0.130E-02  0.891E-02  0.123E-02  0.123E-02
  10.415  0.164E-01  0.118E-02  0.125E-02  0.125E-02  0.130E-02  0.893E-02  0.122E-02  0.122E-02
  10.435  0.164E-01  0.118E-02  0.125E-02  0.125E-02  0.129E-02  0.896E-02  0.122E-02  0.122E-02
  10.455  0.164E-01  0.118E-02  0.125E-02  0.125E-02  0.128E-02  0.898E-02  0.122E-02  0.122E-02
  10.475  0.164E-01  0.119E-02  0.124E-02  0.124E-02  0.128E-02  0.900E-02  0.122E-02  0.122E-02
  10.495  0.164E-01  0.119E-02  0.124E-02  0.124E-02  0.127E-02  0.901E-02  0.122E-02  0.122E-02
  10.515  0.164E-01  0.119E-02  0.124E-02  0.124E-02  0.127E-02  0.902E-02  0.122E-02  0.122E-02
  10.535  0.164E-01  0.120E-02  0.124E-02  0.124E-02  0.127E-02  0.903E-02  0.122E-02  0.122E-02
  10.555  0.165E-01  0.120E-02  0.125E-02  0.125E-02  0.127E-02  0.904E-02  0.123E-02  0.123E-02
  10.575  0.165E-01  0.120E-02  0.125E-02  0.125E-02  0.128E-02  0.905E-02  0.123E-02  0.123E-02
  10.595  0.165E-01  0.121E-02  0.125E-02  0.125E-02  0.128E-02  0.906E-02  0.124E-02  0.124E-02
  10.615  0.166E-01  0.121E-02  0.126E-02  0.126E-02  0.129E-02  0.906E-02  0.124E-02  0.124E-02
  10.635  0.166E-01  0.122E-02  0.127E-02  0.127E-02  0.129E-02  0.907E-02  0.125E-02  0.125E-02
  10.655  0.167E-01  0.123E-02  0.128E-02  0.128E-02  0.130E-02  0.907E-02  0.126E-02  0.126E-02
  10.675  0.167E-01  0.123E-02  0.128E-02  0.128E-02  0.131E-02  0.908E-02  0.126E-02  0.126E-02
  10.695  0.168E-01  0.124E-02  0.130E-02  0.130E-02  0.133E-02  0.908E-02  0.127E-02  0.127E-02
  10.715  0.169E-01  0.125E-02  0.131E-02  0.131E-02  0.134E-02  0.909E-02  0.129E-02  0.129E-02
  10.735  0.169E-01  0.126E-02  0.132E-02  0.132E-02  0.135E-02  0.909E-02  0.130E-02  0.130E-02
  10.755  0.170E-01  0.127E-02  0.133E-02  0.133E-02  0.137E-02  0.910E-02  0.131E-02  0.131E-02
  10.775  0.171E-01  0.129E-02  0.135E-02  0.135E-02  0.138E-02  0.910E-02  0.132E-02  0.132E-02
  10.795  0.172E-01  0.130E-02  0.136E-02  0.136E-02  0.140E-02  0.910E-02  0.134E-02  0.134E-02
  10.815  0.173E-01  0.131E-02  0.138E-02  0.138E-02  0.141E-02  0.910E-02  0.135E-02  0.135E-02
  10.835  0.174E-01  0.133E-02  0.139E-02  0.139E-02  0.143E-02  0.910E-02  0.137E-02  0.137E-02
  10.855  0.175E-01  0.135E-02  0.141E-02  0.141E-02  0.144E-02  0.910E-02  0.138E-02  0.138E-02
  10.875  0.175E-01  0.136E-02  0.142E-02  0.142E-02  0.146E-02  0.909E-02  0.140E-02  0.140E-02
  10.895  0.176E-01  0.138E-02  0.144E-02  0.144E-02  0.147E-02  0.908E-02  0.141E-02  0.141E-02
  10.915  0.177E-01  0.140E-02  0.145E-02  0.145E-02  0.148E-02  0.907E-02  0.143E-02  0.143E-02
  10.935  0.178E-01  0.141E-02  0.146E-02  0.146E-02  0.149E-02  0.905E-02  0.144E-02  0.144E-02
  10.955  0.178E-01  0.143E-02  0.148E-02  0.148E-02  0.150E-02  0.902E-02  0.146E-02  0.146E-02
  10.975  0.179E-01  0.145E-02  0.149E-02  0.149E-02  0.151E-02  0.899E-02  0.147E-02  0.147E-02
  10.995  0.179E-01  0.147E-02  0.150E-02  0.150E-02  0.152E-02  0.895E-02  0.149E-02  0.149E-02
  11.015  0.179E-01  0.149E-02  0.151E-02  0.151E-02  0.152E-02  0.891E-02  0.150E-02  0.150E-02
  11.035  0.180E-01  0.151E-02  0.152E-02  0.152E-02  0.152E-02  0.886E-02  0.151E-02  0.151E-02
  11.055  0.180E-01  0.153E-02  0.153E-02  0.153E-02  0.153E-02  0.880E-02  0.153E-02  0.153E-02
  11.075  0.179E-01  0.154E-02  0.153E-02  0.153E-02  0.153E-02  0.873E-02  0.154E-02  0.154E-02
  11.095  0.179E-01  0.156E-02  0.154E-02  0.154E-02  0.153E-02  0.865E-02  0.155E-02  0.155E-02
  11.115  0.179E-01  0.158E-02  0.154E-02  0.154E-02  0.153E-02  0.857E-02  0.156E-02  0.156E-02
  11.135  0.178E-01  0.159E-02  0.155E-02  0.155E-02  0.152E-02  0.848E-02  0.157E-02  0.157E-02
  11.155  0.178E-01  0.161E-02  0.155E-02  0.155E-02  0.152E-02  0.838E-02  0.157E-02  0.157E-02
  11.175  0.177E-01  0.162E-02  0.156E-02  0.156E-02  0.152E-02  0.827E-02  0.158E-02  0.158E-02
  11.195  0.176E-01  0.163E-02  0.156E-02  0.156E-02  0.151E-02  0.816E-02  0.159E-02  0.159E-02
  11.215  0.175E-01  0.164E-02  0.156E-02  0.156E-02  0.151E-02  0.805E-02  0.159E-02  0.159E-02
  11.235  0.174E-01  0.166E-02  0.156E-02  0.156E-02  0.150E-02  0.792E-02  0.160E-02  0.160E-02
  11.255  0.173E-01  0.167E-02  0.156E-02  0.156E-02  0.150E-02  0.780E-02  0.160E-02  0.160E-02
  11.275  0.172E-01  0.167E-02  0.156E-02  0.156E-02  0.150E-02  0.767E-02  0.161E-02  0.161E-02
  11.295  0.171E-01  0.168E-02  0.157E-02  0.157E-02  0.150E-02  0.754E-02  0.161E-02  0.161E-02
  11.315  0.170E-01  0.169E-02  0.157E-02  0.157E-02  0.150E-02  0.741E-02  0.162E-02  0.162E-02
  11.335  0.169E-01  0.170E-02  0.157E-02  0.157E-02  0.150E-02  0.728E-02  0.162E-02  0.162E-02
  11.355  0.168E-01  0.171E-02  0.158E-02  0.158E-02  0.150E-02  0.714E-02  0.163E-02  0.163E-02
  11.375  0.167E-01  0.172E-02  0.158E-02  0.158E-02  0.150E-02  0.702E-02  0.164E-02  0.164E-02
  11.395  0.166E-01  0.173E-02  0.159E-02  0.159E-02  0.151E-02  0.689E-02  0.165E-02  0.165E-02
  11.415  0.165E-01  0.174E-02  0.160E-02  0.160E-02  0.152E-02  0.677E-02  0.165E-02  0.165E-02
  11.435  0.165E-01  0.175E-02  0.161E-02  0.161E-02  0.153E-02  0.665E-02  0.167E-02  0.167E-02
  11.455  0.165E-01  0.176E-02  0.163E-02  0.163E-02  0.155E-02  0.654E-02  0.168E-02  0.168E-02
  11.475  0.164E-01  0.177E-02  0.164E-02  0.164E-02  0.156E-02  0.643E-02  0.170E-02  0.170E-02
  11.495  0.165E-01  0.179E-02  0.166E-02  0.166E-02  0.158E-02  0.634E-02  0.171E-02  0.171E-02
  11.515  0.165E-01  0.181E-02  0.168E-02  0.168E-02  0.161E-02  0.624E-02  0.173E-02  0.173E-02
  11.535  0.166E-01  0.183E-02  0.171E-02  0.171E-02  0.163E-02  0.616E-02  0.176E-02  0.176E-02
  11.555  0.166E-01  0.186E-02  0.174E-02  0.174E-02  0.166E-02  0.608E-02  0.178E-02  0.178E-02
  11.575  0.167E-01  0.188E-02  0.177E-02  0.177E-02  0.170E-02  0.601E-02  0.181E-02  0.181E-02
  11.595  0.169E-01  0.191E-02  0.180E-02  0.180E-02  0.173E-02  0.595E-02  0.185E-02  0.185E-02
  11.615  0.171E-01  0.195E-02  0.184E-02  0.184E-02  0.177E-02  0.590E-02  0.188E-02  0.188E-02
  11.635  0.172E-01  0.199E-02  0.188E-02  0.188E-02  0.181E-02  0.585E-02  0.192E-02  0.192E-02
  11.655  0.175E-01  0.203E-02  0.192E-02  0.192E-02  0.185E-02  0.581E-02  0.196E-02  0.196E-02
  11.675  0.177E-01  0.207E-02  0.196E-02  0.196E-02  0.190E-02  0.577E-02  0.201E-02  0.201E-02
  11.695  0.179E-01  0.212E-02  0.201E-02  0.201E-02  0.195E-02  0.574E-02  0.206E-02  0.206E-02
  11.715  0.182E-01  0.217E-02  0.206E-02  0.206E-02  0.199E-02  0.572E-02  0.211E-02  0.211E-02
  11.735  0.185E-01  0.223E-02  0.211E-02  0.211E-02  0.204E-02  0.569E-02  0.216E-02  0.216E-02
  11.755  0.188E-01  0.229E-02  0.217E-02  0.217E-02  0.210E-02  0.567E-02  0.222E-02  0.222E-02
  11.775  0.192E-01  0.235E-02  0.222E-02  0.222E-02  0.215E-02  0.566E-02  0.227E-02  0.227E-02
  11.795  0.195E-01  0.242E-02  0.228E-02  0.228E-02  0.220E-02  0.564E-02  0.234E-02  0.234E-02
  11.815  0.198E-01  0.248E-02  0.234E-02  0.234E-02  0.225E-02  0.562E-02  0.240E-02  0.240E-02
  11.835  0.202E-01  0.255E-02  0.240E-02  0.240E-02  0.230E-02  0.561E-02  0.246E-02  0.246E-02
  11.855  0.205E-01  0.263E-02  0.246E-02  0.246E-02  0.236E-02  0.559E-02  0.253E-02  0.253E-02
  11.875  0.209E-01  0.270E-02  0.252E-02  0.252E-02  0.241E-02  0.557E-02  0.259E-02  0.259E-02
  11.895  0.213E-01  0.278E-02  0.258E-02  0.258E-02  0.246E-02  0.555E-02  0.266E-02  0.266E-02
  11.915  0.216E-01  0.286E-02  0.264E-02  0.264E-02  0.251E-02  0.552E-02  0.272E-02  0.272E-02
  11.935  0.220E-01  0.294E-02  0.270E-02  0.270E-02  0.255E-02  0.549E-02  0.279E-02  0.279E-02
  11.955  0.223E-01  0.302E-02  0.276E-02  0.276E-02  0.260E-02  0.546E-02  0.286E-02  0.286E-02
  11.975  0.227E-01  0.310E-02  0.282E-02  0.282E-02  0.265E-02  0.543E-02  0.293E-02  0.293E-02
  11.995  0.230E-01  0.318E-02  0.288E-02  0.288E-02  0.269E-02  0.539E-02  0.300E-02  0.300E-02
  12.015  0.234E-01  0.327E-02  0.294E-02  0.294E-02  0.274E-02  0.534E-02  0.307E-02  0.307E-02
  12.035  0.237E-01  0.335E-02  0.300E-02  0.300E-02  0.278E-02  0.530E-02  0.314E-02  0.314E-02
  12.055  0.240E-01  0.344E-02  0.306E-02  0.306E-02  0.283E-02  0.525E-02  0.321E-02  0.321E-02
  12.075  0.244E-01  0.353E-02  0.312E-02  0.312E-02  0.287E-02  0.520E-02  0.328E-02  0.328E-02
  12.095  0.247E-01  0.361E-02  0.318E-02  0.318E-02  0.292E-02  0.515E-02  0.335E-02  0.335E-02
  12.115  0.251E-01  0.370E-02  0.324E-02  0.324E-02  0.296E-02  0.509E-02  0.343E-02  0.343E-02
  12.135  0.254E-01  0.380E-02  0.330E-02  0.330E-02  0.301E-02  0.504E-02  0.350E-02  0.350E-02
  12.155  0.258E-01  0.389E-02  0.337E-02  0.337E-02  0.305E-02  0.498E-02  0.357E-02  0.357E-02
  12.175  0.262E-01  0.398E-02  0.343E-02  0.343E-02  0.310E-02  0.493E-02  0.365E-02  0.365E-02
  12.195  0.266E-01  0.408E-02  0.350E-02  0.350E-02  0.315E-02  0.487E-02  0.373E-02  0.373E-02
  12.215  0.270E-01  0.418E-02  0.357E-02  0.357E-02  0.320E-02  0.482E-02  0.381E-02  0.381E-02
  12.235  0.274E-01  0.428E-02  0.364E-02  0.364E-02  0.325E-02  0.477E-02  0.389E-02  0.389E-02
  12.255  0.278E-01  0.438E-02  0.371E-02  0.371E-02  0.330E-02  0.473E-02  0.398E-02  0.398E-02
  12.275  0.282E-01  0.448E-02  0.378E-02  0.378E-02  0.336E-02  0.469E-02  0.406E-02  0.406E-02
  12.295  0.287E-01  0.459E-02  0.386E-02  0.386E-02  0.342E-02  0.465E-02  0.415E-02  0.415E-02
  12.315  0.291E-01  0.470E-02  0.393E-02  0.393E-02  0.348E-02  0.462E-02  0.424E-02  0.424E-02
  12.335  0.296E-01  0.481E-02  0.401E-02  0.401E-02  0.354E-02  0.459E-02  0.433E-02  0.433E-02
  12.355  0.301E-01  0.491E-02  0.409E-02  0.409E-02  0.360E-02  0.457E-02  0.442E-02  0.442E-02
  12.375  0.306E-01  0.502E-02  0.417E-02  0.417E-02  0.366E-02  0.455E-02  0.451E-02  0.451E-02
  12.395  0.311E-01  0.513E-02  0.425E-02  0.425E-02  0.373E-02  0.454E-02  0.461E-02  0.461E-02
  12.415  0.316E-01  0.524E-02  0.434E-02  0.434E-02  0.379E-02  0.454E-02  0.470E-02  0.470E-02
  12.435  0.322E-01  0.535E-02  0.442E-02  0.442E-02  0.386E-02  0.453E-02  0.479E-02  0.479E-02
  12.455  0.327E-01  0.546E-02  0.450E-02  0.450E-02  0.392E-02  0.453E-02  0.488E-02  0.488E-02
  12.475  0.332E-01  0.556E-02  0.457E-02  0.457E-02  0.398E-02  0.454E-02  0.497E-02  0.497E-02
  12.495  0.337E-01  0.567E-02  0.465E-02  0.465E-02  0.404E-02  0.454E-02  0.506E-02  0.506E-02
  12.515  0.341E-01  0.577E-02  0.472E-02  0.472E-02  0.410E-02  0.455E-02  0.514E-02  0.514E-02
  12.535  0.346E-01  0.586E-02  0.479E-02  0.479E-02  0.415E-02  0.456E-02  0.522E-02  0.522E-02
  12.555  0.350E-01  0.595E-02  0.486E-02  0.486E-02  0.420E-02  0.457E-02  0.530E-02  0.530E-02
  12.575  0.354E-01  0.604E-02  0.492E-02  0.492E-02  0.425E-02  0.458E-02  0.537E-02  0.537E-02
  12.595  0.358E-01  0.612E-02  0.498E-02  0.498E-02  0.429E-02  0.459E-02  0.543E-02  0.543E-02
  12.615  0.362E-01  0.619E-02  0.503E-02  0.503E-02  0.433E-02  0.459E-02  0.549E-02  0.549E-02
  12.635  0.365E-01  0.626E-02  0.507E-02  0.507E-02  0.436E-02  0.459E-02  0.555E-02  0.555E-02
  12.655  0.367E-01  0.632E-02  0.511E-02  0.511E-02  0.439E-02  0.459E-02  0.560E-02  0.560E-02
  12.675  0.369E-01  0.638E-02  0.514E-02  0.514E-02  0.440E-02  0.459E-02  0.564E-02  0.564E-02
  12.695  0.371E-01  0.642E-02  0.517E-02  0.517E-02  0.442E-02  0.458E-02  0.567E-02  0.567E-02
  12.715  0.372E-01  0.646E-02  0.519E-02  0.519E-02  0.442E-02  0.456E-02  0.570E-02  0.570E-02
  12.735  0.373E-01  0.650E-02  0.520E-02  0.520E-02  0.442E-02  0.454E-02  0.572E-02  0.572E-02
  12.755  0.373E-01  0.652E-02  0.520E-02  0.520E-02  0.441E-02  0.451E-02  0.573E-02  0.573E-02
  12.775  0.373E-01  0.654E-02  0.520E-02  0.520E-02  0.440E-02  0.448E-02  0.574E-02  0.574E-02
  12.795  0.372E-01  0.655E-02  0.519E-02  0.519E-02  0.437E-02  0.444E-02  0.573E-02  0.573E-02
  12.815  0.371E-01  0.655E-02  0.517E-02  0.517E-02  0.434E-02  0.440E-02  0.573E-02  0.573E-02
  12.835  0.369E-01  0.655E-02  0.515E-02  0.515E-02  0.431E-02  0.435E-02  0.571E-02  0.571E-02
  12.855  0.367E-01  0.654E-02  0.512E-02  0.512E-02  0.427E-02  0.429E-02  0.569E-02  0.569E-02
  12.875  0.365E-01  0.653E-02  0.509E-02  0.509E-02  0.422E-02  0.423E-02  0.566E-02  0.566E-02
  12.895  0.362E-01  0.651E-02  0.504E-02  0.504E-02  0.416E-02  0.416E-02  0.563E-02  0.563E-02
  12.915  0.359E-01  0.649E-02  0.500E-02  0.500E-02  0.410E-02  0.409E-02  0.559E-02  0.559E-02
  12.935  0.355E-01  0.646E-02  0.495E-02  0.495E-02  0.404E-02  0.402E-02  0.555E-02  0.555E-02
  12.955  0.352E-01  0.643E-02  0.490E-02  0.490E-02  0.397E-02  0.394E-02  0.551E-02  0.551E-02
  12.975  0.348E-01  0.640E-02  0.484E-02  0.484E-02  0.390E-02  0.386E-02  0.546E-02  0.546E-02
  12.995  0.344E-01  0.637E-02  0.478E-02  0.478E-02  0.382E-02  0.378E-02  0.541E-02  0.541E-02
  13.015  0.339E-01  0.633E-02  0.472E-02  0.472E-02  0.375E-02  0.370E-02  0.536E-02  0.536E-02
  13.035  0.335E-01  0.629E-02  0.465E-02  0.465E-02  0.367E-02  0.361E-02  0.531E-02  0.531E-02
  13.055  0.330E-01  0.626E-02  0.459E-02  0.459E-02  0.358E-02  0.353E-02  0.525E-02  0.525E-02
  13.075  0.326E-01  0.622E-02  0.452E-02  0.452E-02  0.350E-02  0.344E-02  0.520E-02  0.520E-02
  13.095  0.321E-01  0.618E-02  0.445E-02  0.445E-02  0.342E-02  0.336E-02  0.514E-02  0.514E-02
  13.115  0.317E-01  0.614E-02  0.439E-02  0.439E-02  0.333E-02  0.328E-02  0.509E-02  0.509E-02
  13.135  0.312E-01  0.611E-02  0.432E-02  0.432E-02  0.325E-02  0.319E-02  0.503E-02  0.503E-02
  13.155  0.308E-01  0.607E-02  0.425E-02  0.425E-02  0.316E-02  0.311E-02  0.498E-02  0.498E-02
  13.175  0.304E-01  0.603E-02  0.419E-02  0.419E-02  0.308E-02  0.303E-02  0.492E-02  0.492E-02
  13.195  0.299E-01  0.600E-02  0.412E-02  0.412E-02  0.299E-02  0.295E-02  0.487E-02  0.487E-02
  13.215  0.295E-01  0.596E-02  0.406E-02  0.406E-02  0.291E-02  0.287E-02  0.482E-02  0.482E-02
  13.235  0.291E-01  0.592E-02  0.399E-02  0.399E-02  0.283E-02  0.280E-02  0.477E-02  0.477E-02
  13.255  0.286E-01  0.589E-02  0.393E-02  0.393E-02  0.275E-02  0.272E-02  0.471E-02  0.471E-02
  13.275  0.282E-01  0.585E-02  0.387E-02  0.387E-02  0.268E-02  0.265E-02  0.466E-02  0.466E-02
  13.295  0.278E-01  0.581E-02  0.381E-02  0.381E-02  0.260E-02  0.257E-02  0.461E-02  0.461E-02
  13.315  0.274E-01  0.577E-02  0.375E-02  0.375E-02  0.253E-02  0.250E-02  0.456E-02  0.456E-02
  13.335  0.270E-01  0.573E-02  0.369E-02  0.369E-02  0.246E-02  0.243E-02  0.450E-02  0.450E-02
  13.355  0.266E-01  0.569E-02  0.363E-02  0.363E-02  0.239E-02  0.236E-02  0.445E-02  0.445E-02
  13.375  0.262E-01  0.564E-02  0.357E-02  0.357E-02  0.232E-02  0.229E-02  0.440E-02  0.440E-02
  13.395  0.258E-01  0.559E-02  0.351E-02  0.351E-02  0.226E-02  0.222E-02  0.434E-02  0.434E-02
  13.415  0.253E-01  0.554E-02  0.345E-02  0.345E-02  0.219E-02  0.214E-02  0.429E-02  0.429E-02
  13.435  0.249E-01  0.548E-02  0.339E-02  0.339E-02  0.213E-02  0.207E-02  0.423E-02  0.423E-02
  13.455  0.245E-01  0.542E-02  0.333E-02  0.333E-02  0.207E-02  0.200E-02  0.417E-02  0.417E-02
  13.475  0.241E-01  0.536E-02  0.327E-02  0.327E-02  0.202E-02  0.193E-02  0.411E-02  0.411E-02
  13.495  0.236E-01  0.529E-02  0.321E-02  0.321E-02  0.196E-02  0.186E-02  0.404E-02  0.404E-02
  13.515  0.232E-01  0.522E-02  0.315E-02  0.315E-02  0.191E-02  0.179E-02  0.398E-02  0.398E-02
  13.535  0.227E-01  0.514E-02  0.309E-02  0.309E-02  0.185E-02  0.172E-02  0.391E-02  0.391E-02
  13.555  0.222E-01  0.506E-02  0.302E-02  0.302E-02  0.180E-02  0.165E-02  0.384E-02  0.384E-02
  13.575  0.218E-01  0.497E-02  0.296E-02  0.296E-02  0.175E-02  0.158E-02  0.377E-02  0.377E-02
  13.595  0.213E-01  0.489E-02  0.290E-02  0.290E-02  0.171E-02  0.152E-02  0.369E-02  0.369E-02
  13.615  0.208E-01  0.479E-02  0.284E-02  0.284E-02  0.166E-02  0.145E-02  0.362E-02  0.362E-02
  13.635  0.203E-01  0.470E-02  0.277E-02  0.277E-02  0.162E-02  0.138E-02  0.354E-02  0.354E-02
  13.655  0.198E-01  0.460E-02  0.271E-02  0.271E-02  0.158E-02  0.131E-02  0.347E-02  0.347E-02
  13.675  0.194E-01  0.450E-02  0.265E-02  0.265E-02  0.154E-02  0.125E-02  0.339E-02  0.339E-02
  13.695  0.189E-01  0.440E-02  0.259E-02  0.259E-02  0.150E-02  0.119E-02  0.331E-02  0.331E-02
  13.715  0.184E-01  0.429E-02  0.253E-02  0.253E-02  0.147E-02  0.113E-02  0.323E-02  0.323E-02
  13.735  0.179E-01  0.419E-02  0.247E-02  0.247E-02  0.144E-02  0.107E-02  0.316E-02  0.316E-02
  13.755  0.175E-01  0.408E-02  0.241E-02  0.241E-02  0.141E-02  0.101E-02  0.308E-02  0.308E-02
  13.775  0.170E-01  0.397E-02  0.235E-02  0.235E-02  0.138E-02  0.954E-03  0.300E-02  0.300E-02
  13.795  0.166E-01  0.387E-02  0.230E-02  0.230E-02  0.136E-02  0.901E-03  0.293E-02  0.293E-02
  13.815  0.162E-01  0.377E-02  0.225E-02  0.225E-02  0.134E-02  0.850E-03  0.285E-02  0.285E-02
  13.835  0.157E-01  0.366E-02  0.220E-02  0.220E-02  0.132E-02  0.802E-03  0.278E-02  0.278E-02
  13.855  0.154E-01  0.356E-02  0.215E-02  0.215E-02  0.130E-02  0.757E-03  0.272E-02  0.272E-02
  13.875  0.150E-01  0.346E-02  0.211E-02  0.211E-02  0.129E-02  0.714E-03  0.265E-02  0.265E-02
  13.895  0.146E-01  0.337E-02  0.207E-02  0.207E-02  0.128E-02  0.674E-03  0.259E-02  0.259E-02
  13.915  0.143E-01  0.328E-02  0.203E-02  0.203E-02  0.128E-02  0.636E-03  0.253E-02  0.253E-02
  13.935  0.140E-01  0.319E-02  0.199E-02  0.199E-02  0.127E-02  0.601E-03  0.247E-02  0.247E-02
  13.955  0.137E-01  0.310E-02  0.196E-02  0.196E-02  0.127E-02  0.568E-03  0.242E-02  0.242E-02
  13.975  0.134E-01  0.302E-02  0.193E-02  0.193E-02  0.128E-02  0.537E-03  0.236E-02  0.236E-02
  13.995  0.132E-01  0.294E-02  0.190E-02  0.190E-02  0.128E-02  0.509E-03  0.232E-02  0.232E-02
  14.015  0.129E-01  0.286E-02  0.188E-02  0.188E-02  0.129E-02  0.482E-03  0.227E-02  0.227E-02
  14.035  0.127E-01  0.279E-02  0.186E-02  0.186E-02  0.130E-02  0.458E-03  0.223E-02  0.223E-02
  14.055  0.125E-01  0.272E-02  0.184E-02  0.184E-02  0.131E-02  0.436E-03  0.219E-02  0.219E-02
  14.075  0.124E-01  0.266E-02  0.183E-02  0.183E-02  0.132E-02  0.415E-03  0.216E-02  0.216E-02
  14.095  0.122E-01  0.260E-02  0.181E-02  0.181E-02  0.134E-02  0.396E-03  0.213E-02  0.213E-02
  14.115  0.121E-01  0.254E-02  0.180E-02  0.180E-02  0.136E-02  0.379E-03  0.210E-02  0.210E-02
  14.135  0.120E-01  0.249E-02  0.179E-02  0.179E-02  0.138E-02  0.363E-03  0.207E-02  0.207E-02
  14.155  0.118E-01  0.243E-02  0.179E-02  0.179E-02  0.140E-02  0.349E-03  0.205E-02  0.205E-02
  14.175  0.117E-01  0.238E-02  0.178E-02  0.178E-02  0.142E-02  0.335E-03  0.202E-02  0.202E-02
  14.195  0.117E-01  0.234E-02  0.178E-02  0.178E-02  0.144E-02  0.323E-03  0.200E-02  0.200E-02
  14.215  0.116E-01  0.229E-02  0.177E-02  0.177E-02  0.146E-02  0.312E-03  0.198E-02  0.198E-02
  14.235  0.115E-01  0.225E-02  0.177E-02  0.177E-02  0.149E-02  0.301E-03  0.196E-02  0.196E-02
  14.255  0.114E-01  0.220E-02  0.177E-02  0.177E-02  0.151E-02  0.292E-03  0.194E-02  0.194E-02
  14.275  0.114E-01  0.216E-02  0.177E-02  0.177E-02  0.153E-02  0.283E-03  0.192E-02  0.192E-02
  14.295  0.113E-01  0.212E-02  0.176E-02  0.176E-02  0.155E-02  0.275E-03  0.191E-02  0.191E-02
  14.315  0.112E-01  0.208E-02  0.176E-02  0.176E-02  0.157E-02  0.268E-03  0.189E-02  0.189E-02
  14.335  0.112E-01  0.204E-02  0.176E-02  0.176E-02  0.159E-02  0.261E-03  0.187E-02  0.187E-02
  14.355  0.111E-01  0.200E-02  0.175E-02  0.175E-02  0.161E-02  0.255E-03  0.185E-02  0.185E-02
  14.375  0.110E-01  0.196E-02  0.175E-02  0.175E-02  0.162E-02  0.249E-03  0.184E-02  0.184E-02
  14.395  0.109E-01  0.192E-02  0.174E-02  0.174E-02  0.164E-02  0.244E-03  0.182E-02  0.182E-02
  14.415  0.108E-01  0.189E-02  0.174E-02  0.174E-02  0.165E-02  0.240E-03  0.180E-02  0.180E-02
  14.435  0.108E-01  0.185E-02  0.173E-02  0.173E-02  0.166E-02  0.236E-03  0.178E-02  0.178E-02
  14.455  0.107E-01  0.181E-02  0.172E-02  0.172E-02  0.167E-02  0.232E-03  0.176E-02  0.176E-02
  14.475  0.106E-01  0.177E-02  0.171E-02  0.171E-02  0.167E-02  0.229E-03  0.174E-02  0.174E-02
  14.495  0.105E-01  0.173E-02  0.170E-02  0.170E-02  0.168E-02  0.226E-03  0.171E-02  0.171E-02
  14.515  0.104E-01  0.170E-02  0.169E-02  0.169E-02  0.168E-02  0.224E-03  0.169E-02  0.169E-02
  14.535  0.103E-01  0.166E-02  0.168E-02  0.168E-02  0.169E-02  0.222E-03  0.167E-02  0.167E-02
  14.555  0.101E-01  0.162E-02  0.166E-02  0.166E-02  0.169E-02  0.220E-03  0.165E-02  0.165E-02
  14.575  0.100E-01  0.159E-02  0.165E-02  0.165E-02  0.169E-02  0.219E-03  0.162E-02  0.162E-02
  14.595  0.992E-02  0.155E-02  0.163E-02  0.163E-02  0.168E-02  0.218E-03  0.160E-02  0.160E-02
  14.615  0.981E-02  0.152E-02  0.162E-02  0.162E-02  0.168E-02  0.217E-03  0.158E-02  0.158E-02
  14.635  0.970E-02  0.148E-02  0.160E-02  0.160E-02  0.168E-02  0.217E-03  0.156E-02  0.156E-02
  14.655  0.959E-02  0.145E-02  0.159E-02  0.159E-02  0.167E-02  0.217E-03  0.153E-02  0.153E-02
  14.675  0.948E-02  0.142E-02  0.158E-02  0.158E-02  0.167E-02  0.217E-03  0.151E-02  0.151E-02
  14.695  0.938E-02  0.139E-02  0.156E-02  0.156E-02  0.167E-02  0.218E-03  0.149E-02  0.149E-02
  14.715  0.928E-02  0.136E-02  0.155E-02  0.155E-02  0.166E-02  0.219E-03  0.147E-02  0.147E-02
  14.735  0.918E-02  0.133E-02  0.153E-02  0.153E-02  0.166E-02  0.220E-03  0.145E-02  0.145E-02
  14.755  0.910E-02  0.130E-02  0.152E-02  0.152E-02  0.165E-02  0.222E-03  0.144E-02  0.144E-02
  14.775  0.902E-02  0.128E-02  0.151E-02  0.151E-02  0.165E-02  0.224E-03  0.142E-02  0.142E-02
  14.795  0.894E-02  0.126E-02  0.150E-02  0.150E-02  0.165E-02  0.226E-03  0.140E-02  0.140E-02
  14.815  0.887E-02  0.124E-02  0.149E-02  0.149E-02  0.165E-02  0.229E-03  0.139E-02  0.139E-02
  14.835  0.881E-02  0.122E-02  0.148E-02  0.148E-02  0.165E-02  0.232E-03  0.138E-02  0.138E-02
  14.855  0.876E-02  0.120E-02  0.148E-02  0.148E-02  0.165E-02  0.235E-03  0.136E-02  0.136E-02
  14.875  0.872E-02  0.118E-02  0.147E-02  0.147E-02  0.165E-02  0.239E-03  0.135E-02  0.135E-02
  14.895  0.868E-02  0.116E-02  0.147E-02  0.147E-02  0.165E-02  0.243E-03  0.135E-02  0.135E-02
  14.915  0.865E-02  0.115E-02  0.146E-02  0.146E-02  0.165E-02  0.248E-03  0.134E-02  0.134E-02
  14.935  0.863E-02  0.114E-02  0.146E-02  0.146E-02  0.165E-02  0.253E-03  0.133E-02  0.133E-02
  14.955  0.861E-02  0.113E-02  0.146E-02  0.146E-02  0.166E-02  0.259E-03  0.133E-02  0.133E-02
  14.975  0.861E-02  0.112E-02  0.146E-02  0.146E-02  0.166E-02  0.265E-03  0.132E-02  0.132E-02
  14.995  0.861E-02  0.111E-02  0.146E-02  0.146E-02  0.167E-02  0.272E-03  0.132E-02  0.132E-02
  15.015  0.861E-02  0.110E-02  0.146E-02  0.146E-02  0.168E-02  0.280E-03  0.132E-02  0.132E-02
  15.035  0.863E-02  0.109E-02  0.146E-02  0.146E-02  0.169E-02  0.288E-03  0.132E-02  0.132E-02
  15.055  0.865E-02  0.109E-02  0.147E-02  0.147E-02  0.170E-02  0.296E-03  0.132E-02  0.132E-02
  15.075  0.868E-02  0.108E-02  0.147E-02  0.147E-02  0.171E-02  0.306E-03  0.132E-02  0.132E-02
  15.095  0.872E-02  0.108E-02  0.148E-02  0.148E-02  0.172E-02  0.316E-03  0.132E-02  0.132E-02
  15.115  0.877E-02  0.108E-02  0.149E-02  0.149E-02  0.174E-02  0.327E-03  0.132E-02  0.132E-02
  15.135  0.882E-02  0.108E-02  0.150E-02  0.150E-02  0.175E-02  0.338E-03  0.133E-02  0.133E-02
  15.155  0.889E-02  0.107E-02  0.151E-02  0.151E-02  0.177E-02  0.350E-03  0.134E-02  0.134E-02
  15.175  0.896E-02  0.107E-02  0.152E-02  0.152E-02  0.179E-02  0.363E-03  0.134E-02  0.134E-02
  15.195  0.904E-02  0.108E-02  0.154E-02  0.154E-02  0.181E-02  0.376E-03  0.135E-02  0.135E-02
  15.215  0.913E-02  0.108E-02  0.155E-02  0.155E-02  0.184E-02  0.389E-03  0.136E-02  0.136E-02
  15.235  0.923E-02  0.108E-02  0.157E-02  0.157E-02  0.186E-02  0.404E-03  0.137E-02  0.137E-02
  15.255  0.933E-02  0.108E-02  0.159E-02  0.159E-02  0.189E-02  0.418E-03  0.139E-02  0.139E-02
  15.275  0.945E-02  0.109E-02  0.161E-02  0.161E-02  0.192E-02  0.433E-03  0.140E-02  0.140E-02
  15.295  0.958E-02  0.109E-02  0.163E-02  0.163E-02  0.195E-02  0.448E-03  0.141E-02  0.141E-02
  15.315  0.971E-02  0.109E-02  0.165E-02  0.165E-02  0.199E-02  0.464E-03  0.143E-02  0.143E-02
  15.335  0.986E-02  0.110E-02  0.168E-02  0.168E-02  0.203E-02  0.479E-03  0.145E-02  0.145E-02
  15.355  0.100E-01  0.110E-02  0.171E-02  0.171E-02  0.207E-02  0.495E-03  0.147E-02  0.147E-02
  15.375  0.102E-01  0.111E-02  0.174E-02  0.174E-02  0.212E-02  0.510E-03  0.149E-02  0.149E-02
  15.395  0.104E-01  0.111E-02  0.177E-02  0.177E-02  0.216E-02  0.526E-03  0.151E-02  0.151E-02
  15.415  0.105E-01  0.112E-02  0.180E-02  0.180E-02  0.221E-02  0.541E-03  0.153E-02  0.153E-02
  15.435  0.107E-01  0.112E-02  0.184E-02  0.184E-02  0.227E-02  0.556E-03  0.155E-02  0.155E-02
  15.455  0.109E-01  0.113E-02  0.187E-02  0.187E-02  0.232E-02  0.571E-03  0.158E-02  0.158E-02
  15.475  0.111E-01  0.113E-02  0.191E-02  0.191E-02  0.238E-02  0.586E-03  0.160E-02  0.160E-02
  15.495  0.113E-01  0.114E-02  0.195E-02  0.195E-02  0.244E-02  0.600E-03  0.163E-02  0.163E-02
  15.515  0.115E-01  0.114E-02  0.199E-02  0.199E-02  0.250E-02  0.614E-03  0.165E-02  0.165E-02
  15.535  0.118E-01  0.115E-02  0.203E-02  0.203E-02  0.256E-02  0.628E-03  0.168E-02  0.168E-02
  15.555  0.120E-01  0.115E-02  0.207E-02  0.207E-02  0.263E-02  0.642E-03  0.170E-02  0.170E-02
  15.575  0.122E-01  0.115E-02  0.212E-02  0.212E-02  0.270E-02  0.655E-03  0.173E-02  0.173E-02
  15.595  0.124E-01  0.116E-02  0.216E-02  0.216E-02  0.276E-02  0.668E-03  0.176E-02  0.176E-02
  15.615  0.127E-01  0.116E-02  0.220E-02  0.220E-02  0.283E-02  0.682E-03  0.179E-02  0.179E-02
  15.635  0.129E-01  0.116E-02  0.225E-02  0.225E-02  0.290E-02  0.695E-03  0.181E-02  0.181E-02
  15.655  0.131E-01  0.117E-02  0.229E-02  0.229E-02  0.296E-02  0.708E-03  0.184E-02  0.184E-02
  15.675  0.133E-01  0.117E-02  0.233E-02  0.233E-02  0.303E-02  0.721E-03  0.187E-02  0.187E-02
  15.695  0.135E-01  0.117E-02  0.237E-02  0.237E-02  0.309E-02  0.735E-03  0.189E-02  0.189E-02
  15.715  0.137E-01  0.118E-02  0.241E-02  0.241E-02  0.316E-02  0.749E-03  0.192E-02  0.192E-02
  15.735  0.140E-01  0.118E-02  0.245E-02  0.245E-02  0.322E-02  0.763E-03  0.194E-02  0.194E-02
  15.755  0.142E-01  0.118E-02  0.249E-02  0.249E-02  0.328E-02  0.778E-03  0.197E-02  0.197E-02
  15.775  0.144E-01  0.119E-02  0.253E-02  0.253E-02  0.334E-02  0.793E-03  0.199E-02  0.199E-02
  15.795  0.146E-01  0.119E-02  0.257E-02  0.257E-02  0.339E-02  0.808E-03  0.202E-02  0.202E-02
  15.815  0.147E-01  0.120E-02  0.260E-02  0.260E-02  0.344E-02  0.824E-03  0.204E-02  0.204E-02
  15.835  0.149E-01  0.120E-02  0.263E-02  0.263E-02  0.349E-02  0.841E-03  0.206E-02  0.206E-02
  15.855  0.151E-01  0.121E-02  0.266E-02  0.266E-02  0.354E-02  0.858E-03  0.208E-02  0.208E-02
  15.875  0.153E-01  0.122E-02  0.269E-02  0.269E-02  0.358E-02  0.875E-03  0.210E-02  0.210E-02
  15.895  0.154E-01  0.123E-02  0.272E-02  0.272E-02  0.362E-02  0.893E-03  0.212E-02  0.212E-02
  15.915  0.156E-01  0.123E-02  0.275E-02  0.275E-02  0.366E-02  0.911E-03  0.214E-02  0.214E-02
  15.935  0.157E-01  0.124E-02  0.277E-02  0.277E-02  0.369E-02  0.929E-03  0.216E-02  0.216E-02
  15.955  0.159E-01  0.126E-02  0.279E-02  0.279E-02  0.372E-02  0.948E-03  0.218E-02  0.218E-02
  15.975  0.160E-01  0.127E-02  0.282E-02  0.282E-02  0.374E-02  0.965E-03  0.220E-02  0.220E-02
  15.995  0.161E-01  0.128E-02  0.283E-02  0.283E-02  0.377E-02  0.983E-03  0.221E-02  0.221E-02
  16.015  0.162E-01  0.129E-02  0.285E-02  0.285E-02  0.378E-02  0.100E-02  0.223E-02  0.223E-02
  16.035  0.163E-01  0.131E-02  0.287E-02  0.287E-02  0.380E-02  0.102E-02  0.224E-02  0.224E-02
  16.055  0.164E-01  0.132E-02  0.288E-02  0.288E-02  0.381E-02  0.103E-02  0.226E-02  0.226E-02
  16.075  0.165E-01  0.134E-02  0.289E-02  0.289E-02  0.382E-02  0.105E-02  0.227E-02  0.227E-02
  16.095  0.166E-01  0.135E-02  0.290E-02  0.290E-02  0.382E-02  0.106E-02  0.228E-02  0.228E-02
  16.115  0.167E-01  0.137E-02  0.290E-02  0.290E-02  0.383E-02  0.107E-02  0.229E-02  0.229E-02
  16.135  0.167E-01  0.139E-02  0.291E-02  0.291E-02  0.382E-02  0.108E-02  0.230E-02  0.230E-02
  16.155  0.168E-01  0.140E-02  0.291E-02  0.291E-02  0.382E-02  0.109E-02  0.231E-02  0.231E-02
  16.175  0.168E-01  0.142E-02  0.291E-02  0.291E-02  0.381E-02  0.109E-02  0.232E-02  0.232E-02
  16.195  0.168E-01  0.143E-02  0.291E-02  0.291E-02  0.380E-02  0.109E-02  0.232E-02  0.232E-02
  16.215  0.168E-01  0.144E-02  0.291E-02  0.291E-02  0.379E-02  0.109E-02  0.232E-02  0.232E-02
  16.235  0.168E-01  0.146E-02  0.291E-02  0.291E-02  0.378E-02  0.109E-02  0.233E-02  0.233E-02
  16.255  0.168E-01  0.147E-02  0.290E-02  0.290E-02  0.376E-02  0.109E-02  0.233E-02  0.233E-02
  16.275  0.167E-01  0.148E-02  0.289E-02  0.289E-02  0.374E-02  0.108E-02  0.233E-02  0.233E-02
  16.295  0.167E-01  0.149E-02  0.289E-02  0.289E-02  0.373E-02  0.107E-02  0.233E-02  0.233E-02
  16.315  0.167E-01  0.149E-02  0.288E-02  0.288E-02  0.370E-02  0.106E-02  0.232E-02  0.232E-02
  16.335  0.166E-01  0.150E-02  0.286E-02  0.286E-02  0.368E-02  0.105E-02  0.232E-02  0.232E-02
  16.355  0.165E-01  0.150E-02  0.285E-02  0.285E-02  0.366E-02  0.104E-02  0.231E-02  0.231E-02
  16.375  0.165E-01  0.151E-02  0.284E-02  0.284E-02  0.364E-02  0.102E-02  0.231E-02  0.231E-02
  16.395  0.164E-01  0.151E-02  0.283E-02  0.283E-02  0.362E-02  0.100E-02  0.230E-02  0.230E-02
  16.415  0.163E-01  0.151E-02  0.281E-02  0.281E-02  0.360E-02  0.980E-03  0.229E-02  0.229E-02
  16.435  0.162E-01  0.150E-02  0.280E-02  0.280E-02  0.357E-02  0.958E-03  0.228E-02  0.228E-02
  16.455  0.161E-01  0.150E-02  0.278E-02  0.278E-02  0.355E-02  0.936E-03  0.227E-02  0.227E-02
  16.475  0.160E-01  0.149E-02  0.277E-02  0.277E-02  0.354E-02  0.913E-03  0.226E-02  0.226E-02
  16.495  0.159E-01  0.149E-02  0.276E-02  0.276E-02  0.352E-02  0.889E-03  0.225E-02  0.225E-02
  16.515  0.158E-01  0.148E-02  0.275E-02  0.275E-02  0.351E-02  0.865E-03  0.224E-02  0.224E-02
  16.535  0.157E-01  0.147E-02  0.274E-02  0.274E-02  0.350E-02  0.840E-03  0.223E-02  0.223E-02
  16.555  0.157E-01  0.146E-02  0.273E-02  0.273E-02  0.349E-02  0.815E-03  0.222E-02  0.222E-02
  16.575  0.156E-01  0.145E-02  0.272E-02  0.272E-02  0.348E-02  0.790E-03  0.222E-02  0.222E-02
  16.595  0.155E-01  0.144E-02  0.272E-02  0.272E-02  0.348E-02  0.766E-03  0.221E-02  0.221E-02
  16.615  0.155E-01  0.144E-02  0.272E-02  0.272E-02  0.348E-02  0.741E-03  0.220E-02  0.220E-02
  16.635  0.155E-01  0.143E-02  0.272E-02  0.272E-02  0.349E-02  0.718E-03  0.220E-02  0.220E-02
  16.655  0.154E-01  0.142E-02  0.272E-02  0.272E-02  0.350E-02  0.694E-03  0.220E-02  0.220E-02
  16.675  0.154E-01  0.141E-02  0.272E-02  0.272E-02  0.352E-02  0.671E-03  0.220E-02  0.220E-02
  16.695  0.154E-01  0.140E-02  0.273E-02  0.273E-02  0.353E-02  0.648E-03  0.220E-02  0.220E-02
  16.715  0.155E-01  0.139E-02  0.274E-02  0.274E-02  0.355E-02  0.626E-03  0.220E-02  0.220E-02
  16.735  0.155E-01  0.138E-02  0.275E-02  0.275E-02  0.358E-02  0.605E-03  0.221E-02  0.221E-02
  16.755  0.155E-01  0.138E-02  0.277E-02  0.277E-02  0.361E-02  0.584E-03  0.221E-02  0.221E-02
  16.775  0.156E-01  0.137E-02  0.279E-02  0.279E-02  0.363E-02  0.563E-03  0.222E-02  0.222E-02
  16.795  0.156E-01  0.137E-02  0.280E-02  0.280E-02  0.367E-02  0.543E-03  0.223E-02  0.223E-02
  16.815  0.157E-01  0.136E-02  0.282E-02  0.282E-02  0.370E-02  0.523E-03  0.224E-02  0.224E-02
  16.835  0.158E-01  0.136E-02  0.284E-02  0.284E-02  0.373E-02  0.504E-03  0.225E-02  0.225E-02
  16.855  0.159E-01  0.136E-02  0.286E-02  0.286E-02  0.377E-02  0.485E-03  0.226E-02  0.226E-02
  16.875  0.159E-01  0.135E-02  0.288E-02  0.288E-02  0.380E-02  0.467E-03  0.227E-02  0.227E-02
  16.895  0.160E-01  0.135E-02  0.290E-02  0.290E-02  0.384E-02  0.449E-03  0.228E-02  0.228E-02
  16.915  0.161E-01  0.135E-02  0.292E-02  0.292E-02  0.387E-02  0.431E-03  0.230E-02  0.230E-02
  16.935  0.162E-01  0.135E-02  0.294E-02  0.294E-02  0.390E-02  0.413E-03  0.231E-02  0.231E-02
  16.955  0.162E-01  0.135E-02  0.296E-02  0.296E-02  0.392E-02  0.396E-03  0.232E-02  0.232E-02
  16.975  0.163E-01  0.135E-02  0.297E-02  0.297E-02  0.395E-02  0.379E-03  0.233E-02  0.233E-02
  16.995  0.163E-01  0.136E-02  0.299E-02  0.299E-02  0.396E-02  0.362E-03  0.233E-02  0.233E-02
  17.015  0.164E-01  0.136E-02  0.300E-02  0.300E-02  0.398E-02  0.346E-03  0.234E-02  0.234E-02
  17.035  0.164E-01  0.136E-02  0.300E-02  0.300E-02  0.399E-02  0.330E-03  0.234E-02  0.234E-02
  17.055  0.164E-01  0.136E-02  0.301E-02  0.301E-02  0.399E-02  0.314E-03  0.235E-02  0.235E-02
  17.075  0.164E-01  0.136E-02  0.301E-02  0.301E-02  0.399E-02  0.299E-03  0.235E-02  0.235E-02
  17.095  0.163E-01  0.137E-02  0.300E-02  0.300E-02  0.399E-02  0.284E-03  0.235E-02  0.235E-02
  17.115  0.163E-01  0.137E-02  0.300E-02  0.300E-02  0.398E-02  0.269E-03  0.235E-02  0.235E-02
  17.135  0.162E-01  0.137E-02  0.299E-02  0.299E-02  0.396E-02  0.255E-03  0.234E-02  0.234E-02
  17.155  0.162E-01  0.137E-02  0.298E-02  0.298E-02  0.394E-02  0.242E-03  0.233E-02  0.233E-02
  17.175  0.161E-01  0.137E-02  0.296E-02  0.296E-02  0.391E-02  0.229E-03  0.233E-02  0.233E-02
  17.195  0.160E-01  0.137E-02  0.294E-02  0.294E-02  0.388E-02  0.216E-03  0.232E-02  0.232E-02
  17.215  0.159E-01  0.138E-02  0.292E-02  0.292E-02  0.385E-02  0.204E-03  0.230E-02  0.230E-02
  17.235  0.158E-01  0.138E-02  0.290E-02  0.290E-02  0.381E-02  0.193E-03  0.229E-02  0.229E-02
  17.255  0.156E-01  0.138E-02  0.287E-02  0.287E-02  0.377E-02  0.183E-03  0.228E-02  0.228E-02
  17.275  0.155E-01  0.138E-02  0.285E-02  0.285E-02  0.373E-02  0.172E-03  0.226E-02  0.226E-02
  17.295  0.153E-01  0.138E-02  0.282E-02  0.282E-02  0.368E-02  0.163E-03  0.224E-02  0.224E-02
  17.315  0.152E-01  0.138E-02  0.279E-02  0.279E-02  0.363E-02  0.154E-03  0.222E-02  0.222E-02
  17.335  0.150E-01  0.138E-02  0.276E-02  0.276E-02  0.358E-02  0.146E-03  0.221E-02  0.221E-02
  17.355  0.149E-01  0.138E-02  0.273E-02  0.273E-02  0.353E-02  0.138E-03  0.219E-02  0.219E-02
  17.375  0.147E-01  0.138E-02  0.270E-02  0.270E-02  0.349E-02  0.131E-03  0.217E-02  0.217E-02
  17.395  0.146E-01  0.138E-02  0.266E-02  0.266E-02  0.344E-02  0.125E-03  0.215E-02  0.215E-02
  17.415  0.144E-01  0.137E-02  0.263E-02  0.263E-02  0.339E-02  0.118E-03  0.213E-02  0.213E-02
  17.435  0.143E-01  0.137E-02  0.260E-02  0.260E-02  0.334E-02  0.113E-03  0.211E-02  0.211E-02
  17.455  0.141E-01  0.137E-02  0.257E-02  0.257E-02  0.330E-02  0.108E-03  0.209E-02  0.209E-02
  17.475  0.140E-01  0.136E-02  0.255E-02  0.255E-02  0.326E-02  0.103E-03  0.207E-02  0.207E-02
  17.495  0.138E-01  0.136E-02  0.252E-02  0.252E-02  0.322E-02  0.985E-04  0.205E-02  0.205E-02
  17.515  0.137E-01  0.135E-02  0.250E-02  0.250E-02  0.318E-02  0.945E-04  0.204E-02  0.204E-02
  17.535  0.136E-01  0.134E-02  0.247E-02  0.247E-02  0.315E-02  0.908E-04  0.202E-02  0.202E-02
  17.555  0.134E-01  0.133E-02  0.245E-02  0.245E-02  0.312E-02  0.873E-04  0.200E-02  0.200E-02
  17.575  0.133E-01  0.132E-02  0.243E-02  0.243E-02  0.309E-02  0.842E-04  0.199E-02  0.199E-02
  17.595  0.132E-01  0.131E-02  0.241E-02  0.241E-02  0.307E-02  0.812E-04  0.197E-02  0.197E-02
  17.615  0.131E-01  0.130E-02  0.239E-02  0.239E-02  0.305E-02  0.785E-04  0.196E-02  0.196E-02
  17.635  0.130E-01  0.129E-02  0.238E-02  0.238E-02  0.303E-02  0.759E-04  0.194E-02  0.194E-02
  17.655  0.129E-01  0.128E-02  0.236E-02  0.236E-02  0.301E-02  0.735E-04  0.193E-02  0.193E-02
  17.675  0.129E-01  0.126E-02  0.235E-02  0.235E-02  0.300E-02  0.712E-04  0.192E-02  0.192E-02
  17.695  0.128E-01  0.125E-02  0.234E-02  0.234E-02  0.299E-02  0.691E-04  0.190E-02  0.190E-02
  17.715  0.127E-01  0.124E-02  0.233E-02  0.233E-02  0.298E-02  0.670E-04  0.189E-02  0.189E-02
  17.735  0.127E-01  0.122E-02  0.232E-02  0.232E-02  0.298E-02  0.650E-04  0.188E-02  0.188E-02
  17.755  0.126E-01  0.121E-02  0.231E-02  0.231E-02  0.298E-02  0.631E-04  0.187E-02  0.187E-02
  17.775  0.126E-01  0.120E-02  0.231E-02  0.231E-02  0.297E-02  0.613E-04  0.186E-02  0.186E-02
  17.795  0.125E-01  0.118E-02  0.230E-02  0.230E-02  0.297E-02  0.595E-04  0.185E-02  0.185E-02
  17.815  0.125E-01  0.117E-02  0.230E-02  0.230E-02  0.297E-02  0.579E-04  0.184E-02  0.184E-02
  17.835  0.124E-01  0.116E-02  0.229E-02  0.229E-02  0.297E-02  0.562E-04  0.184E-02  0.184E-02
  17.855  0.124E-01  0.114E-02  0.229E-02  0.229E-02  0.297E-02  0.547E-04  0.183E-02  0.183E-02
  17.875  0.124E-01  0.113E-02  0.228E-02  0.228E-02  0.297E-02  0.532E-04  0.182E-02  0.182E-02
  17.895  0.123E-01  0.112E-02  0.228E-02  0.228E-02  0.297E-02  0.517E-04  0.182E-02  0.182E-02
  17.915  0.123E-01  0.112E-02  0.227E-02  0.227E-02  0.297E-02  0.504E-04  0.181E-02  0.181E-02
  17.935  0.123E-01  0.111E-02  0.227E-02  0.227E-02  0.296E-02  0.491E-04  0.180E-02  0.180E-02
  17.955  0.122E-01  0.110E-02  0.226E-02  0.226E-02  0.296E-02  0.478E-04  0.180E-02  0.180E-02
  17.975  0.122E-01  0.110E-02  0.226E-02  0.226E-02  0.295E-02  0.467E-04  0.179E-02  0.179E-02
  17.995  0.122E-01  0.109E-02  0.225E-02  0.225E-02  0.294E-02  0.455E-04  0.179E-02  0.179E-02
  18.015  0.121E-01  0.109E-02  0.224E-02  0.224E-02  0.293E-02  0.445E-04  0.178E-02  0.178E-02
  18.035  0.121E-01  0.109E-02  0.223E-02  0.223E-02  0.292E-02  0.435E-04  0.178E-02  0.178E-02
  18.055  0.120E-01  0.109E-02  0.222E-02  0.222E-02  0.291E-02  0.426E-04  0.177E-02  0.177E-02
  18.075  0.120E-01  0.109E-02  0.221E-02  0.221E-02  0.289E-02  0.418E-04  0.176E-02  0.176E-02
  18.095  0.119E-01  0.109E-02  0.220E-02  0.220E-02  0.287E-02  0.410E-04  0.176E-02  0.176E-02
  18.115  0.119E-01  0.109E-02  0.219E-02  0.219E-02  0.285E-02  0.402E-04  0.175E-02  0.175E-02
  18.135  0.118E-01  0.109E-02  0.217E-02  0.217E-02  0.283E-02  0.395E-04  0.174E-02  0.174E-02
  18.155  0.117E-01  0.109E-02  0.216E-02  0.216E-02  0.280E-02  0.389E-04  0.173E-02  0.173E-02
  18.175  0.116E-01  0.109E-02  0.214E-02  0.214E-02  0.277E-02  0.383E-04  0.172E-02  0.172E-02
  18.195  0.115E-01  0.109E-02  0.212E-02  0.212E-02  0.274E-02  0.377E-04  0.171E-02  0.171E-02
  18.215  0.114E-01  0.109E-02  0.210E-02  0.210E-02  0.271E-02  0.371E-04  0.170E-02  0.170E-02
  18.235  0.113E-01  0.109E-02  0.208E-02  0.208E-02  0.267E-02  0.365E-04  0.168E-02  0.168E-02
  18.255  0.112E-01  0.109E-02  0.206E-02  0.206E-02  0.264E-02  0.360E-04  0.167E-02  0.167E-02
  18.275  0.111E-01  0.109E-02  0.203E-02  0.203E-02  0.260E-02  0.354E-04  0.166E-02  0.166E-02
  18.295  0.110E-01  0.109E-02  0.201E-02  0.201E-02  0.256E-02  0.349E-04  0.164E-02  0.164E-02
  18.315  0.108E-01  0.108E-02  0.198E-02  0.198E-02  0.252E-02  0.343E-04  0.162E-02  0.162E-02
  18.335  0.107E-01  0.108E-02  0.195E-02  0.195E-02  0.248E-02  0.338E-04  0.160E-02  0.160E-02
  18.355  0.106E-01  0.108E-02  0.192E-02  0.192E-02  0.243E-02  0.332E-04  0.159E-02  0.159E-02
  18.375  0.104E-01  0.107E-02  0.190E-02  0.190E-02  0.239E-02  0.326E-04  0.157E-02  0.157E-02
  18.395  0.103E-01  0.107E-02  0.187E-02  0.187E-02  0.235E-02  0.319E-04  0.155E-02  0.155E-02
  18.415  0.101E-01  0.106E-02  0.184E-02  0.184E-02  0.230E-02  0.313E-04  0.153E-02  0.153E-02
  18.435  0.997E-02  0.105E-02  0.181E-02  0.181E-02  0.226E-02  0.307E-04  0.151E-02  0.151E-02
  18.455  0.982E-02  0.105E-02  0.178E-02  0.178E-02  0.222E-02  0.300E-04  0.149E-02  0.149E-02
  18.475  0.967E-02  0.104E-02  0.175E-02  0.175E-02  0.217E-02  0.293E-04  0.147E-02  0.147E-02
  18.495  0.953E-02  0.104E-02  0.172E-02  0.172E-02  0.213E-02  0.287E-04  0.145E-02  0.145E-02
  18.515  0.939E-02  0.103E-02  0.169E-02  0.169E-02  0.209E-02  0.280E-04  0.143E-02  0.143E-02
  18.535  0.925E-02  0.102E-02  0.167E-02  0.167E-02  0.205E-02  0.274E-04  0.141E-02  0.141E-02
  18.555  0.912E-02  0.102E-02  0.164E-02  0.164E-02  0.201E-02  0.267E-04  0.139E-02  0.139E-02
  18.575  0.900E-02  0.101E-02  0.162E-02  0.162E-02  0.198E-02  0.261E-04  0.137E-02  0.137E-02
  18.595  0.888E-02  0.101E-02  0.159E-02  0.159E-02  0.194E-02  0.255E-04  0.136E-02  0.136E-02
  18.615  0.877E-02  0.101E-02  0.157E-02  0.157E-02  0.191E-02  0.250E-04  0.134E-02  0.134E-02
  18.635  0.866E-02  0.101E-02  0.155E-02  0.155E-02  0.187E-02  0.244E-04  0.133E-02  0.133E-02
  18.655  0.856E-02  0.100E-02  0.153E-02  0.153E-02  0.184E-02  0.240E-04  0.132E-02  0.132E-02
  18.675  0.847E-02  0.100E-02  0.151E-02  0.151E-02  0.181E-02  0.235E-04  0.131E-02  0.131E-02
  18.695  0.838E-02  0.100E-02  0.149E-02  0.149E-02  0.178E-02  0.232E-04  0.129E-02  0.129E-02
  18.715  0.829E-02  0.100E-02  0.147E-02  0.147E-02  0.175E-02  0.228E-04  0.128E-02  0.128E-02
  18.735  0.821E-02  0.100E-02  0.145E-02  0.145E-02  0.173E-02  0.225E-04  0.127E-02  0.127E-02
  18.755  0.813E-02  0.100E-02  0.144E-02  0.144E-02  0.170E-02  0.223E-04  0.126E-02  0.126E-02
  18.775  0.805E-02  0.100E-02  0.142E-02  0.142E-02  0.167E-02  0.221E-04  0.125E-02  0.125E-02
  18.795  0.797E-02  0.100E-02  0.141E-02  0.141E-02  0.165E-02  0.220E-04  0.125E-02  0.125E-02
  18.815  0.789E-02  0.100E-02  0.139E-02  0.139E-02  0.162E-02  0.219E-04  0.124E-02  0.124E-02
  18.835  0.781E-02  0.100E-02  0.137E-02  0.137E-02  0.159E-02  0.218E-04  0.122E-02  0.122E-02
  18.855  0.773E-02  0.100E-02  0.135E-02  0.135E-02  0.157E-02  0.218E-04  0.121E-02  0.121E-02
  18.875  0.764E-02  0.999E-03  0.134E-02  0.134E-02  0.154E-02  0.218E-04  0.120E-02  0.120E-02
  18.895  0.754E-02  0.995E-03  0.132E-02  0.132E-02  0.151E-02  0.218E-04  0.119E-02  0.119E-02
  18.915  0.743E-02  0.990E-03  0.130E-02  0.130E-02  0.148E-02  0.219E-04  0.117E-02  0.117E-02
  18.935  0.732E-02  0.983E-03  0.128E-02  0.128E-02  0.145E-02  0.219E-04  0.116E-02  0.116E-02
  18.955  0.720E-02  0.975E-03  0.125E-02  0.125E-02  0.142E-02  0.219E-04  0.114E-02  0.114E-02
  18.975  0.708E-02  0.965E-03  0.123E-02  0.123E-02  0.139E-02  0.220E-04  0.112E-02  0.112E-02
  18.995  0.694E-02  0.953E-03  0.120E-02  0.120E-02  0.135E-02  0.220E-04  0.110E-02  0.110E-02
  19.015  0.680E-02  0.940E-03  0.118E-02  0.118E-02  0.132E-02  0.221E-04  0.108E-02  0.108E-02
  19.035  0.665E-02  0.925E-03  0.115E-02  0.115E-02  0.128E-02  0.221E-04  0.106E-02  0.106E-02
  19.055  0.649E-02  0.908E-03  0.112E-02  0.112E-02  0.125E-02  0.221E-04  0.104E-02  0.104E-02
  19.075  0.632E-02  0.890E-03  0.109E-02  0.109E-02  0.121E-02  0.221E-04  0.101E-02  0.101E-02
  19.095  0.615E-02  0.871E-03  0.106E-02  0.106E-02  0.117E-02  0.220E-04  0.984E-03  0.984E-03
  19.115  0.598E-02  0.851E-03  0.103E-02  0.103E-02  0.113E-02  0.220E-04  0.957E-03  0.957E-03
  19.135  0.580E-02  0.831E-03  0.997E-03  0.997E-03  0.110E-02  0.219E-04  0.930E-03  0.930E-03
  19.155  0.563E-02  0.810E-03  0.965E-03  0.965E-03  0.106E-02  0.219E-04  0.903E-03  0.903E-03
  19.175  0.545E-02  0.788E-03  0.934E-03  0.934E-03  0.102E-02  0.218E-04  0.876E-03  0.876E-03
  19.195  0.528E-02  0.767E-03  0.903E-03  0.903E-03  0.984E-03  0.217E-04  0.849E-03  0.849E-03
  19.215  0.511E-02  0.746E-03  0.873E-03  0.873E-03  0.948E-03  0.216E-04  0.822E-03  0.822E-03
  19.235  0.494E-02  0.726E-03  0.843E-03  0.843E-03  0.914E-03  0.216E-04  0.796E-03  0.796E-03
  19.255  0.478E-02  0.707E-03  0.815E-03  0.815E-03  0.880E-03  0.215E-04  0.772E-03  0.772E-03
  19.275  0.463E-02  0.689E-03  0.789E-03  0.789E-03  0.848E-03  0.215E-04  0.749E-03  0.749E-03
  19.295  0.449E-02  0.672E-03  0.764E-03  0.764E-03  0.818E-03  0.215E-04  0.727E-03  0.727E-03
  19.315  0.436E-02  0.657E-03  0.740E-03  0.740E-03  0.790E-03  0.215E-04  0.707E-03  0.707E-03
  19.335  0.425E-02  0.643E-03  0.719E-03  0.719E-03  0.764E-03  0.215E-04  0.689E-03  0.689E-03
  19.355  0.414E-02  0.632E-03  0.700E-03  0.700E-03  0.741E-03  0.216E-04  0.673E-03  0.673E-03
  19.375  0.405E-02  0.623E-03  0.683E-03  0.683E-03  0.719E-03  0.217E-04  0.659E-03  0.659E-03
  19.395  0.397E-02  0.615E-03  0.668E-03  0.668E-03  0.700E-03  0.219E-04  0.647E-03  0.647E-03
  19.415  0.390E-02  0.610E-03  0.656E-03  0.656E-03  0.683E-03  0.221E-04  0.638E-03  0.638E-03
  19.435  0.385E-02  0.607E-03  0.646E-03  0.646E-03  0.669E-03  0.224E-04  0.630E-03  0.630E-03
  19.455  0.381E-02  0.606E-03  0.637E-03  0.637E-03  0.656E-03  0.227E-04  0.625E-03  0.625E-03
  19.475  0.378E-02  0.607E-03  0.631E-03  0.631E-03  0.646E-03  0.230E-04  0.621E-03  0.621E-03
  19.495  0.376E-02  0.609E-03  0.627E-03  0.627E-03  0.638E-03  0.234E-04  0.620E-03  0.620E-03
  19.515  0.376E-02  0.613E-03  0.624E-03  0.624E-03  0.631E-03  0.238E-04  0.620E-03  0.620E-03
  19.535  0.376E-02  0.619E-03  0.623E-03  0.623E-03  0.626E-03  0.243E-04  0.622E-03  0.622E-03
  19.555  0.377E-02  0.625E-03  0.624E-03  0.624E-03  0.623E-03  0.248E-04  0.624E-03  0.624E-03
  19.575  0.378E-02  0.633E-03  0.625E-03  0.625E-03  0.621E-03  0.252E-04  0.628E-03  0.628E-03
  19.595  0.380E-02  0.641E-03  0.627E-03  0.627E-03  0.619E-03  0.257E-04  0.633E-03  0.633E-03
  19.615  0.383E-02  0.649E-03  0.630E-03  0.630E-03  0.618E-03  0.262E-04  0.637E-03  0.637E-03
  19.635  0.385E-02  0.657E-03  0.633E-03  0.633E-03  0.618E-03  0.267E-04  0.643E-03  0.643E-03
  19.655  0.388E-02  0.665E-03  0.636E-03  0.636E-03  0.618E-03  0.272E-04  0.648E-03  0.648E-03
  19.675  0.390E-02  0.673E-03  0.639E-03  0.639E-03  0.618E-03  0.276E-04  0.652E-03  0.652E-03
  19.695  0.392E-02  0.679E-03  0.641E-03  0.641E-03  0.618E-03  0.281E-04  0.656E-03  0.656E-03
  19.715  0.394E-02  0.685E-03  0.643E-03  0.643E-03  0.617E-03  0.285E-04  0.660E-03  0.660E-03
  19.735  0.395E-02  0.690E-03  0.644E-03  0.644E-03  0.616E-03  0.289E-04  0.662E-03  0.662E-03
  19.755  0.395E-02  0.693E-03  0.643E-03  0.643E-03  0.614E-03  0.292E-04  0.663E-03  0.663E-03
  19.775  0.395E-02  0.695E-03  0.642E-03  0.642E-03  0.611E-03  0.295E-04  0.663E-03  0.663E-03
  19.795  0.393E-02  0.695E-03  0.640E-03  0.640E-03  0.606E-03  0.298E-04  0.662E-03  0.662E-03
  19.815  0.391E-02  0.693E-03  0.636E-03  0.636E-03  0.601E-03  0.300E-04  0.659E-03  0.659E-03
  19.835  0.388E-02  0.690E-03  0.630E-03  0.630E-03  0.595E-03  0.302E-04  0.654E-03  0.654E-03
  19.855  0.385E-02  0.685E-03  0.624E-03  0.624E-03  0.587E-03  0.304E-04  0.648E-03  0.648E-03
  19.875  0.380E-02  0.678E-03  0.616E-03  0.616E-03  0.578E-03  0.305E-04  0.641E-03  0.641E-03
  19.895  0.374E-02  0.670E-03  0.606E-03  0.606E-03  0.568E-03  0.306E-04  0.632E-03  0.632E-03
  19.915  0.368E-02  0.660E-03  0.596E-03  0.596E-03  0.557E-03  0.307E-04  0.621E-03  0.621E-03
  19.935  0.361E-02  0.649E-03  0.584E-03  0.584E-03  0.545E-03  0.308E-04  0.610E-03  0.610E-03
  19.955  0.353E-02  0.636E-03  0.571E-03  0.571E-03  0.532E-03  0.309E-04  0.597E-03  0.597E-03
  19.975  0.345E-02  0.622E-03  0.557E-03  0.557E-03  0.518E-03  0.309E-04  0.583E-03  0.583E-03
  19.995  0.336E-02  0.607E-03  0.542E-03  0.542E-03  0.503E-03  0.310E-04  0.568E-03  0.568E-03
  20.015  0.327E-02  0.592E-03  0.527E-03  0.527E-03  0.488E-03  0.311E-04  0.553E-03  0.553E-03
  20.035  0.317E-02  0.576E-03  0.511E-03  0.511E-03  0.472E-03  0.313E-04  0.537E-03  0.537E-03
  20.055  0.308E-02  0.559E-03  0.495E-03  0.495E-03  0.456E-03  0.314E-04  0.520E-03  0.520E-03
  20.075  0.298E-02  0.542E-03  0.478E-03  0.478E-03  0.440E-03  0.316E-04  0.504E-03  0.504E-03
  20.095  0.288E-02  0.526E-03  0.462E-03  0.462E-03  0.423E-03  0.319E-04  0.487E-03  0.487E-03
  20.115  0.278E-02  0.509E-03  0.445E-03  0.445E-03  0.407E-03  0.322E-04  0.471E-03  0.471E-03
  20.135  0.268E-02  0.492E-03  0.429E-03  0.429E-03  0.391E-03  0.325E-04  0.454E-03  0.454E-03
  20.155  0.259E-02  0.476E-03  0.413E-03  0.413E-03  0.376E-03  0.329E-04  0.438E-03  0.438E-03
  20.175  0.250E-02  0.461E-03  0.398E-03  0.398E-03  0.360E-03  0.333E-04  0.423E-03  0.423E-03
  20.195  0.241E-02  0.446E-03  0.383E-03  0.383E-03  0.345E-03  0.337E-04  0.408E-03  0.408E-03
  20.215  0.232E-02  0.431E-03  0.369E-03  0.369E-03  0.331E-03  0.342E-04  0.394E-03  0.394E-03
  20.235  0.224E-02  0.418E-03  0.355E-03  0.355E-03  0.318E-03  0.348E-04  0.380E-03  0.380E-03
  20.255  0.217E-02  0.405E-03  0.342E-03  0.342E-03  0.305E-03  0.353E-04  0.368E-03  0.368E-03
  20.275  0.209E-02  0.393E-03  0.330E-03  0.330E-03  0.292E-03  0.359E-04  0.355E-03  0.355E-03
  20.295  0.203E-02  0.382E-03  0.319E-03  0.319E-03  0.281E-03  0.365E-04  0.344E-03  0.344E-03
  20.315  0.196E-02  0.372E-03  0.308E-03  0.308E-03  0.270E-03  0.371E-04  0.334E-03  0.334E-03
  20.335  0.190E-02  0.362E-03  0.298E-03  0.298E-03  0.260E-03  0.377E-04  0.324E-03  0.324E-03
  20.355  0.185E-02  0.353E-03  0.289E-03  0.289E-03  0.250E-03  0.382E-04  0.315E-03  0.315E-03
  20.375  0.180E-02  0.345E-03  0.280E-03  0.280E-03  0.242E-03  0.388E-04  0.306E-03  0.306E-03
  20.395  0.175E-02  0.337E-03  0.272E-03  0.272E-03  0.233E-03  0.393E-04  0.298E-03  0.298E-03
  20.415  0.171E-02  0.330E-03  0.265E-03  0.265E-03  0.226E-03  0.397E-04  0.291E-03  0.291E-03
  20.435  0.167E-02  0.324E-03  0.258E-03  0.258E-03  0.218E-03  0.401E-04  0.284E-03  0.284E-03
  20.455  0.163E-02  0.317E-03  0.251E-03  0.251E-03  0.212E-03  0.404E-04  0.278E-03  0.278E-03
  20.475  0.159E-02  0.312E-03  0.245E-03  0.245E-03  0.205E-03  0.407E-04  0.272E-03  0.272E-03
  20.495  0.156E-02  0.306E-03  0.239E-03  0.239E-03  0.199E-03  0.409E-04  0.266E-03  0.266E-03
  20.515  0.152E-02  0.301E-03  0.234E-03  0.234E-03  0.194E-03  0.410E-04  0.261E-03  0.261E-03
  20.535  0.149E-02  0.295E-03  0.228E-03  0.228E-03  0.188E-03  0.411E-04  0.255E-03  0.255E-03
  20.555  0.146E-02  0.290E-03  0.223E-03  0.223E-03  0.183E-03  0.411E-04  0.250E-03  0.250E-03
  20.575  0.143E-02  0.286E-03  0.218E-03  0.218E-03  0.178E-03  0.410E-04  0.245E-03  0.245E-03
  20.595  0.140E-02  0.281E-03  0.214E-03  0.214E-03  0.173E-03  0.408E-04  0.240E-03  0.240E-03
  20.615  0.138E-02  0.276E-03  0.209E-03  0.209E-03  0.169E-03  0.406E-04  0.236E-03  0.236E-03
  20.635  0.135E-02  0.271E-03  0.205E-03  0.205E-03  0.164E-03  0.404E-04  0.231E-03  0.231E-03
  20.655  0.132E-02  0.267E-03  0.200E-03  0.200E-03  0.160E-03  0.401E-04  0.227E-03  0.227E-03
  20.675  0.129E-02  0.262E-03  0.196E-03  0.196E-03  0.156E-03  0.397E-04  0.222E-03  0.222E-03
  20.695  0.127E-02  0.258E-03  0.192E-03  0.192E-03  0.152E-03  0.394E-04  0.218E-03  0.218E-03
  20.715  0.124E-02  0.253E-03  0.188E-03  0.188E-03  0.148E-03  0.390E-04  0.214E-03  0.214E-03
  20.735  0.122E-02  0.249E-03  0.184E-03  0.184E-03  0.144E-03  0.386E-04  0.210E-03  0.210E-03
  20.755  0.120E-02  0.245E-03  0.180E-03  0.180E-03  0.140E-03  0.382E-04  0.206E-03  0.206E-03
  20.775  0.117E-02  0.241E-03  0.176E-03  0.176E-03  0.137E-03  0.378E-04  0.202E-03  0.202E-03
  20.795  0.115E-02  0.238E-03  0.173E-03  0.173E-03  0.133E-03  0.374E-04  0.199E-03  0.199E-03
  20.815  0.113E-02  0.234E-03  0.169E-03  0.169E-03  0.130E-03  0.370E-04  0.195E-03  0.195E-03
  20.835  0.111E-02  0.231E-03  0.166E-03  0.166E-03  0.127E-03  0.366E-04  0.192E-03  0.192E-03
  20.855  0.109E-02  0.227E-03  0.163E-03  0.163E-03  0.124E-03  0.363E-04  0.189E-03  0.189E-03
  20.875  0.107E-02  0.224E-03  0.160E-03  0.160E-03  0.121E-03  0.360E-04  0.185E-03  0.185E-03
  20.895  0.105E-02  0.221E-03  0.157E-03  0.157E-03  0.118E-03  0.357E-04  0.183E-03  0.183E-03
  20.915  0.104E-02  0.218E-03  0.154E-03  0.154E-03  0.115E-03  0.355E-04  0.180E-03  0.180E-03
  20.935  0.102E-02  0.216E-03  0.151E-03  0.151E-03  0.113E-03  0.352E-04  0.177E-03  0.177E-03
  20.955  0.100E-02  0.213E-03  0.149E-03  0.149E-03  0.110E-03  0.350E-04  0.174E-03  0.174E-03
  20.975  0.989E-03  0.210E-03  0.146E-03  0.146E-03  0.108E-03  0.348E-04  0.172E-03  0.172E-03
  20.995  0.974E-03  0.208E-03  0.144E-03  0.144E-03  0.105E-03  0.346E-04  0.169E-03  0.169E-03
  21.015  0.958E-03  0.205E-03  0.141E-03  0.141E-03  0.103E-03  0.344E-04  0.167E-03  0.167E-03
  21.035  0.943E-03  0.202E-03  0.139E-03  0.139E-03  0.101E-03  0.341E-04  0.164E-03  0.164E-03
  21.055  0.927E-03  0.199E-03  0.136E-03  0.136E-03  0.983E-04  0.339E-04  0.162E-03  0.162E-03
  21.075  0.911E-03  0.196E-03  0.134E-03  0.134E-03  0.960E-04  0.336E-04  0.159E-03  0.159E-03
  21.095  0.894E-03  0.193E-03  0.131E-03  0.131E-03  0.937E-04  0.333E-04  0.156E-03  0.156E-03
  21.115  0.877E-03  0.190E-03  0.128E-03  0.128E-03  0.914E-04  0.330E-04  0.153E-03  0.153E-03
  21.135  0.859E-03  0.186E-03  0.126E-03  0.126E-03  0.890E-04  0.326E-04  0.150E-03  0.150E-03
  21.155  0.840E-03  0.183E-03  0.123E-03  0.123E-03  0.866E-04  0.322E-04  0.147E-03  0.147E-03
  21.175  0.820E-03  0.179E-03  0.120E-03  0.120E-03  0.842E-04  0.317E-04  0.143E-03  0.143E-03
  21.195  0.800E-03  0.174E-03  0.116E-03  0.116E-03  0.817E-04  0.312E-04  0.140E-03  0.140E-03
  21.215  0.778E-03  0.170E-03  0.113E-03  0.113E-03  0.792E-04  0.306E-04  0.136E-03  0.136E-03
  21.235  0.756E-03  0.165E-03  0.110E-03  0.110E-03  0.767E-04  0.299E-04  0.132E-03  0.132E-03
  21.255  0.733E-03  0.161E-03  0.107E-03  0.107E-03  0.741E-04  0.292E-04  0.128E-03  0.128E-03
  21.275  0.710E-03  0.156E-03  0.103E-03  0.103E-03  0.714E-04  0.285E-04  0.124E-03  0.124E-03
  21.295  0.686E-03  0.151E-03  0.995E-04  0.995E-04  0.688E-04  0.277E-04  0.120E-03  0.120E-03
  21.315  0.662E-03  0.146E-03  0.960E-04  0.960E-04  0.662E-04  0.269E-04  0.116E-03  0.116E-03
  21.335  0.638E-03  0.141E-03  0.924E-04  0.924E-04  0.635E-04  0.260E-04  0.112E-03  0.112E-03
  21.355  0.614E-03  0.135E-03  0.888E-04  0.888E-04  0.609E-04  0.251E-04  0.107E-03  0.107E-03
  21.375  0.590E-03  0.130E-03  0.853E-04  0.853E-04  0.583E-04  0.242E-04  0.103E-03  0.103E-03
  21.395  0.567E-03  0.125E-03  0.819E-04  0.819E-04  0.558E-04  0.232E-04  0.993E-04  0.993E-04
  21.415  0.544E-03  0.121E-03  0.785E-04  0.785E-04  0.533E-04  0.223E-04  0.953E-04  0.953E-04
  21.435  0.521E-03  0.116E-03  0.752E-04  0.752E-04  0.509E-04  0.213E-04  0.915E-04  0.915E-04
  21.455  0.500E-03  0.111E-03  0.721E-04  0.721E-04  0.486E-04  0.204E-04  0.878E-04  0.878E-04
  21.475  0.479E-03  0.107E-03  0.691E-04  0.691E-04  0.463E-04  0.195E-04  0.842E-04  0.842E-04
  21.495  0.460E-03  0.103E-03  0.662E-04  0.662E-04  0.442E-04  0.185E-04  0.809E-04  0.809E-04
  21.515  0.442E-03  0.991E-04  0.636E-04  0.636E-04  0.422E-04  0.177E-04  0.778E-04  0.778E-04
  21.535  0.425E-03  0.955E-04  0.610E-04  0.610E-04  0.404E-04  0.168E-04  0.748E-04  0.748E-04
  21.555  0.409E-03  0.922E-04  0.587E-04  0.587E-04  0.386E-04  0.160E-04  0.721E-04  0.721E-04
  21.575  0.394E-03  0.892E-04  0.566E-04  0.566E-04  0.370E-04  0.152E-04  0.696E-04  0.696E-04
  21.595  0.380E-03  0.864E-04  0.546E-04  0.546E-04  0.355E-04  0.145E-04  0.673E-04  0.673E-04
  21.615  0.368E-03  0.839E-04  0.528E-04  0.528E-04  0.341E-04  0.138E-04  0.652E-04  0.652E-04
  21.635  0.356E-03  0.816E-04  0.511E-04  0.511E-04  0.328E-04  0.132E-04  0.633E-04  0.633E-04
  21.655  0.346E-03  0.795E-04  0.496E-04  0.496E-04  0.317E-04  0.126E-04  0.616E-04  0.616E-04
  21.675  0.337E-03  0.776E-04  0.482E-04  0.482E-04  0.306E-04  0.120E-04  0.600E-04  0.600E-04
  21.695  0.328E-03  0.759E-04  0.470E-04  0.470E-04  0.297E-04  0.115E-04  0.585E-04  0.585E-04
  21.715  0.320E-03  0.743E-04  0.458E-04  0.458E-04  0.288E-04  0.110E-04  0.572E-04  0.572E-04
  21.735  0.313E-03  0.728E-04  0.448E-04  0.448E-04  0.280E-04  0.106E-04  0.560E-04  0.560E-04
  21.755  0.306E-03  0.714E-04  0.438E-04  0.438E-04  0.273E-04  0.102E-04  0.548E-04  0.548E-04
  21.775  0.300E-03  0.700E-04  0.429E-04  0.429E-04  0.266E-04  0.983E-05  0.537E-04  0.537E-04
  21.795  0.293E-03  0.687E-04  0.420E-04  0.420E-04  0.259E-04  0.949E-05  0.527E-04  0.527E-04
  21.815  0.287E-03  0.674E-04  0.411E-04  0.411E-04  0.253E-04  0.918E-05  0.516E-04  0.516E-04
  21.835  0.281E-03  0.661E-04  0.403E-04  0.403E-04  0.247E-04  0.889E-05  0.506E-04  0.506E-04
  21.855  0.275E-03  0.648E-04  0.394E-04  0.394E-04  0.242E-04  0.862E-05  0.495E-04  0.495E-04
  21.875  0.269E-03  0.634E-04  0.385E-04  0.385E-04  0.236E-04  0.837E-05  0.485E-04  0.485E-04
  21.895  0.263E-03  0.620E-04  0.376E-04  0.376E-04  0.230E-04  0.814E-05  0.474E-04  0.474E-04
  21.915  0.257E-03  0.605E-04  0.367E-04  0.367E-04  0.225E-04  0.791E-05  0.462E-04  0.462E-04
  21.935  0.250E-03  0.590E-04  0.358E-04  0.358E-04  0.219E-04  0.770E-05  0.451E-04  0.451E-04
  21.955  0.243E-03  0.574E-04  0.348E-04  0.348E-04  0.213E-04  0.749E-05  0.438E-04  0.438E-04
  21.975  0.236E-03  0.557E-04  0.338E-04  0.338E-04  0.207E-04  0.729E-05  0.426E-04  0.426E-04
  21.995  0.229E-03  0.540E-04  0.328E-04  0.328E-04  0.201E-04  0.709E-05  0.412E-04  0.412E-04
  22.015  0.222E-03  0.522E-04  0.317E-04  0.317E-04  0.194E-04  0.689E-05  0.399E-04  0.399E-04
  22.035  0.214E-03  0.504E-04  0.306E-04  0.306E-04  0.188E-04  0.670E-05  0.385E-04  0.385E-04
  22.055  0.206E-03  0.485E-04  0.295E-04  0.295E-04  0.181E-04  0.650E-05  0.371E-04  0.371E-04
  22.075  0.198E-03  0.466E-04  0.283E-04  0.283E-04  0.174E-04  0.631E-05  0.356E-04  0.356E-04
  22.095  0.190E-03  0.447E-04  0.272E-04  0.272E-04  0.167E-04  0.611E-05  0.342E-04  0.342E-04
  22.115  0.182E-03  0.427E-04  0.260E-04  0.260E-04  0.160E-04  0.591E-05  0.327E-04  0.327E-04
  22.135  0.174E-03  0.408E-04  0.249E-04  0.249E-04  0.153E-04  0.571E-05  0.313E-04  0.313E-04
  22.155  0.166E-03  0.389E-04  0.237E-04  0.237E-04  0.147E-04  0.551E-05  0.298E-04  0.298E-04
  22.175  0.158E-03  0.370E-04  0.226E-04  0.226E-04  0.140E-04  0.530E-05  0.284E-04  0.284E-04
  22.195  0.150E-03  0.351E-04  0.215E-04  0.215E-04  0.133E-04  0.509E-05  0.270E-04  0.270E-04
  22.215  0.143E-03  0.333E-04  0.204E-04  0.204E-04  0.127E-04  0.488E-05  0.256E-04  0.256E-04
  22.235  0.135E-03  0.315E-04  0.193E-04  0.193E-04  0.120E-04  0.467E-05  0.242E-04  0.242E-04
  22.255  0.128E-03  0.298E-04  0.183E-04  0.183E-04  0.114E-04  0.446E-05  0.229E-04  0.229E-04
  22.275  0.121E-03  0.282E-04  0.173E-04  0.173E-04  0.108E-04  0.425E-05  0.217E-04  0.217E-04
  22.295  0.115E-03  0.266E-04  0.164E-04  0.164E-04  0.102E-04  0.404E-05  0.205E-04  0.205E-04
  22.315  0.108E-03  0.251E-04  0.155E-04  0.155E-04  0.970E-05  0.383E-05  0.193E-04  0.193E-04
  22.335  0.102E-03  0.236E-04  0.146E-04  0.146E-04  0.918E-05  0.362E-05  0.182E-04  0.182E-04
  22.355  0.962E-04  0.222E-04  0.138E-04  0.138E-04  0.869E-05  0.341E-05  0.172E-04  0.172E-04
  22.375  0.907E-04  0.209E-04  0.130E-04  0.130E-04  0.823E-05  0.321E-05  0.162E-04  0.162E-04
  22.395  0.855E-04  0.197E-04  0.123E-04  0.123E-04  0.779E-05  0.301E-05  0.152E-04  0.152E-04
  22.415  0.806E-04  0.186E-04  0.116E-04  0.116E-04  0.738E-05  0.281E-05  0.144E-04  0.144E-04
  22.435  0.761E-04  0.175E-04  0.109E-04  0.109E-04  0.700E-05  0.262E-05  0.136E-04  0.136E-04
  22.455  0.718E-04  0.165E-04  0.103E-04  0.103E-04  0.664E-05  0.243E-05  0.128E-04  0.128E-04
  22.475  0.678E-04  0.156E-04  0.977E-05  0.977E-05  0.630E-05  0.225E-05  0.121E-04  0.121E-04
  22.495  0.641E-04  0.147E-04  0.926E-05  0.926E-05  0.599E-05  0.207E-05  0.114E-04  0.114E-04
  22.515  0.607E-04  0.139E-04  0.877E-05  0.877E-05  0.569E-05  0.190E-05  0.108E-04  0.108E-04
  22.535  0.576E-04  0.132E-04  0.833E-05  0.833E-05  0.541E-05  0.174E-05  0.103E-04  0.103E-04
  22.555  0.546E-04  0.125E-04  0.792E-05  0.792E-05  0.515E-05  0.159E-05  0.977E-05  0.977E-05
  22.575  0.520E-04  0.119E-04  0.754E-05  0.754E-05  0.491E-05  0.144E-05  0.930E-05  0.930E-05
  22.595  0.495E-04  0.114E-04  0.720E-05  0.720E-05  0.468E-05  0.131E-05  0.888E-05  0.888E-05
  22.615  0.473E-04  0.109E-04  0.688E-05  0.688E-05  0.446E-05  0.118E-05  0.849E-05  0.849E-05
  22.635  0.453E-04  0.105E-04  0.659E-05  0.659E-05  0.425E-05  0.106E-05  0.815E-05  0.815E-05
  22.655  0.434E-04  0.101E-04  0.632E-05  0.632E-05  0.406E-05  0.950E-06  0.783E-05  0.783E-05
  22.675  0.417E-04  0.976E-05  0.608E-05  0.608E-05  0.387E-05  0.847E-06  0.755E-05  0.755E-05
  22.695  0.402E-04  0.946E-05  0.585E-05  0.585E-05  0.369E-05  0.753E-06  0.730E-05  0.730E-05
  22.715  0.388E-04  0.921E-05  0.565E-05  0.565E-05  0.351E-05  0.666E-06  0.707E-05  0.707E-05
  22.735  0.376E-04  0.898E-05  0.546E-05  0.546E-05  0.335E-05  0.588E-06  0.687E-05  0.687E-05
  22.755  0.364E-04  0.879E-05  0.529E-05  0.529E-05  0.319E-05  0.516E-06  0.669E-05  0.669E-05
  22.775  0.354E-04  0.862E-05  0.512E-05  0.512E-05  0.303E-05  0.452E-06  0.652E-05  0.652E-05
  22.795  0.344E-04  0.847E-05  0.498E-05  0.498E-05  0.288E-05  0.394E-06  0.637E-05  0.637E-05
  22.815  0.336E-04  0.834E-05  0.484E-05  0.484E-05  0.273E-05  0.342E-06  0.624E-05  0.624E-05
  22.835  0.327E-04  0.822E-05  0.470E-05  0.470E-05  0.259E-05  0.296E-06  0.611E-05  0.611E-05
  22.855  0.320E-04  0.812E-05  0.458E-05  0.458E-05  0.246E-05  0.256E-06  0.599E-05  0.599E-05
  22.875  0.312E-04  0.802E-05  0.446E-05  0.446E-05  0.232E-05  0.220E-06  0.588E-05  0.588E-05
  22.895  0.305E-04  0.792E-05  0.434E-05  0.434E-05  0.220E-05  0.189E-06  0.577E-05  0.577E-05
  22.915  0.299E-04  0.782E-05  0.423E-05  0.423E-05  0.207E-05  0.162E-06  0.567E-05  0.567E-05
  22.935  0.292E-04  0.773E-05  0.412E-05  0.412E-05  0.195E-05  0.138E-06  0.556E-05  0.556E-05
  22.955  0.285E-04  0.762E-05  0.401E-05  0.401E-05  0.184E-05  0.118E-06  0.546E-05  0.546E-05
  22.975  0.278E-04  0.752E-05  0.390E-05  0.390E-05  0.173E-05  0.100E-06  0.535E-05  0.535E-05
  22.995  0.272E-04  0.740E-05  0.379E-05  0.379E-05  0.163E-05  0.853E-07  0.523E-05  0.523E-05
  23.015  0.265E-04  0.728E-05  0.368E-05  0.368E-05  0.153E-05  0.726E-07  0.512E-05  0.512E-05
  23.035  0.258E-04  0.714E-05  0.357E-05  0.357E-05  0.143E-05  0.617E-07  0.500E-05  0.500E-05
  23.055  0.251E-04  0.700E-05  0.346E-05  0.346E-05  0.134E-05  0.525E-07  0.488E-05  0.488E-05
  23.075  0.244E-04  0.685E-05  0.335E-05  0.335E-05  0.126E-05  0.448E-07  0.475E-05  0.475E-05
  23.095  0.236E-04  0.669E-05  0.324E-05  0.324E-05  0.118E-05  0.383E-07  0.462E-05  0.462E-05
  23.115  0.229E-04  0.652E-05  0.313E-05  0.313E-05  0.110E-05  0.328E-07  0.449E-05  0.449E-05
  23.135  0.222E-04  0.635E-05  0.303E-05  0.303E-05  0.104E-05  0.282E-07  0.435E-05  0.435E-05
  23.155  0.214E-04  0.617E-05  0.292E-05  0.292E-05  0.972E-06  0.244E-07  0.422E-05  0.422E-05
  23.175  0.207E-04  0.599E-05  0.282E-05  0.282E-05  0.915E-06  0.212E-07  0.409E-05  0.409E-05
  23.195  0.200E-04  0.581E-05  0.272E-05  0.272E-05  0.862E-06  0.185E-07  0.396E-05  0.396E-05
  23.215  0.194E-04  0.563E-05  0.262E-05  0.262E-05  0.815E-06  0.162E-07  0.383E-05  0.383E-05
  23.235  0.187E-04  0.546E-05  0.253E-05  0.253E-05  0.774E-06  0.143E-07  0.370E-05  0.370E-05
  23.255  0.181E-04  0.530E-05  0.245E-05  0.245E-05  0.737E-06  0.126E-07  0.359E-05  0.359E-05
  23.275  0.175E-04  0.514E-05  0.237E-05  0.237E-05  0.706E-06  0.112E-07  0.348E-05  0.348E-05
  23.295  0.170E-04  0.499E-05  0.230E-05  0.230E-05  0.679E-06  0.100E-07  0.338E-05  0.338E-05
  23.315  0.166E-04  0.486E-05  0.223E-05  0.223E-05  0.657E-06  0.901E-08  0.328E-05  0.328E-05
  23.335  0.161E-04  0.474E-05  0.218E-05  0.218E-05  0.640E-06  0.810E-08  0.320E-05  0.320E-05
  23.355  0.158E-04  0.463E-05  0.213E-05  0.213E-05  0.627E-06  0.731E-08  0.313E-05  0.313E-05
  23.375  0.155E-04  0.454E-05  0.209E-05  0.209E-05  0.617E-06  0.660E-08  0.307E-05  0.307E-05
  23.395  0.153E-04  0.447E-05  0.206E-05  0.206E-05  0.611E-06  0.597E-08  0.302E-05  0.302E-05
  23.415  0.151E-04  0.442E-05  0.204E-05  0.204E-05  0.609E-06  0.541E-08  0.299E-05  0.299E-05
  23.435  0.150E-04  0.438E-05  0.202E-05  0.202E-05  0.609E-06  0.489E-08  0.296E-05  0.296E-05
  23.455  0.149E-04  0.435E-05  0.202E-05  0.202E-05  0.612E-06  0.442E-08  0.295E-05  0.295E-05
  23.475  0.149E-04  0.435E-05  0.202E-05  0.202E-05  0.617E-06  0.400E-08  0.295E-05  0.295E-05
  23.495  0.149E-04  0.436E-05  0.202E-05  0.202E-05  0.623E-06  0.361E-08  0.296E-05  0.296E-05
  23.515  0.150E-04  0.438E-05  0.204E-05  0.204E-05  0.631E-06  0.325E-08  0.297E-05  0.297E-05
  23.535  0.152E-04  0.442E-05  0.206E-05  0.206E-05  0.639E-06  0.292E-08  0.300E-05  0.300E-05
  23.555  0.153E-04  0.446E-05  0.208E-05  0.208E-05  0.648E-06  0.262E-08  0.303E-05  0.303E-05
  23.575  0.155E-04  0.452E-05  0.210E-05  0.210E-05  0.657E-06  0.234E-08  0.307E-05  0.307E-05
  23.595  0.157E-04  0.458E-05  0.213E-05  0.213E-05  0.665E-06  0.209E-08  0.311E-05  0.311E-05
  23.615  0.159E-04  0.464E-05  0.216E-05  0.216E-05  0.673E-06  0.186E-08  0.315E-05  0.315E-05
  23.635  0.162E-04  0.471E-05  0.219E-05  0.219E-05  0.679E-06  0.165E-08  0.320E-05  0.320E-05
  23.655  0.164E-04  0.478E-05  0.222E-05  0.222E-05  0.684E-06  0.145E-08  0.324E-05  0.324E-05
  23.675  0.166E-04  0.484E-05  0.224E-05  0.224E-05  0.687E-06  0.128E-08  0.328E-05  0.328E-05
  23.695  0.168E-04  0.490E-05  0.227E-05  0.227E-05  0.689E-06  0.112E-08  0.332E-05  0.332E-05
  23.715  0.169E-04  0.495E-05  0.229E-05  0.229E-05  0.688E-06  0.983E-09  0.335E-05  0.335E-05
  23.735  0.171E-04  0.500E-05  0.230E-05  0.230E-05  0.685E-06  0.857E-09  0.338E-05  0.338E-05
  23.755  0.171E-04  0.504E-05  0.231E-05  0.231E-05  0.679E-06  0.744E-09  0.340E-05  0.340E-05
  23.775  0.172E-04  0.506E-05  0.232E-05  0.232E-05  0.672E-06  0.644E-09  0.341E-05  0.341E-05
  23.795  0.172E-04  0.507E-05  0.232E-05  0.232E-05  0.662E-06  0.555E-09  0.342E-05  0.342E-05
  23.815  0.172E-04  0.507E-05  0.231E-05  0.231E-05  0.649E-06  0.476E-09  0.341E-05  0.341E-05
  23.835  0.171E-04  0.505E-05  0.229E-05  0.229E-05  0.635E-06  0.407E-09  0.339E-05  0.339E-05
  23.855  0.169E-04  0.502E-05  0.227E-05  0.227E-05  0.618E-06  0.347E-09  0.337E-05  0.337E-05
  23.875  0.167E-04  0.497E-05  0.224E-05  0.224E-05  0.599E-06  0.295E-09  0.333E-05  0.333E-05
  23.895  0.164E-04  0.490E-05  0.220E-05  0.220E-05  0.579E-06  0.249E-09  0.328E-05  0.328E-05
  23.915  0.161E-04  0.482E-05  0.216E-05  0.216E-05  0.557E-06  0.210E-09  0.322E-05  0.322E-05
  23.935  0.158E-04  0.472E-05  0.210E-05  0.210E-05  0.534E-06  0.176E-09  0.315E-05  0.315E-05
  23.955  0.154E-04  0.461E-05  0.205E-05  0.205E-05  0.509E-06  0.147E-09  0.307E-05  0.307E-05
  23.975  0.149E-04  0.449E-05  0.199E-05  0.199E-05  0.484E-06  0.122E-09  0.299E-05  0.299E-05
  23.995  0.144E-04  0.435E-05  0.192E-05  0.192E-05  0.458E-06  0.101E-09  0.289E-05  0.289E-05
  24.015  0.139E-04  0.420E-05  0.184E-05  0.184E-05  0.432E-06  0.834E-10  0.279E-05  0.279E-05
  24.035  0.133E-04  0.404E-05  0.177E-05  0.177E-05  0.406E-06  0.685E-10  0.268E-05  0.268E-05
  24.055  0.127E-04  0.387E-05  0.169E-05  0.169E-05  0.379E-06  0.560E-10  0.256E-05  0.256E-05
  24.075  0.121E-04  0.369E-05  0.161E-05  0.161E-05  0.353E-06  0.456E-10  0.244E-05  0.244E-05
  24.095  0.115E-04  0.351E-05  0.152E-05  0.152E-05  0.328E-06  0.370E-10  0.232E-05  0.232E-05
  24.115  0.109E-04  0.333E-05  0.144E-05  0.144E-05  0.303E-06  0.299E-10  0.219E-05  0.219E-05
  24.135  0.102E-04  0.314E-05  0.135E-05  0.135E-05  0.278E-06  0.240E-10  0.206E-05  0.206E-05
  24.155  0.960E-05  0.295E-05  0.126E-05  0.126E-05  0.255E-06  0.192E-10  0.194E-05  0.194E-05
  24.175  0.897E-05  0.276E-05  0.118E-05  0.118E-05  0.233E-06  0.153E-10  0.181E-05  0.181E-05
  24.195  0.834E-05  0.257E-05  0.110E-05  0.110E-05  0.212E-06  0.122E-10  0.168E-05  0.168E-05
  24.215  0.772E-05  0.238E-05  0.101E-05  0.101E-05  0.192E-06  0.961E-11  0.156E-05  0.156E-05
  24.235  0.712E-05  0.220E-05  0.933E-06  0.933E-06  0.173E-06  0.756E-11  0.144E-05  0.144E-05
  24.255  0.654E-05  0.202E-05  0.856E-06  0.856E-06  0.155E-06  0.592E-11  0.132E-05  0.132E-05
  24.275  0.598E-05  0.186E-05  0.783E-06  0.783E-06  0.139E-06  0.461E-11  0.121E-05  0.121E-05
  24.295  0.545E-05  0.169E-05  0.712E-06  0.712E-06  0.124E-06  0.358E-11  0.110E-05  0.110E-05
  24.315  0.494E-05  0.154E-05  0.645E-06  0.645E-06  0.110E-06  0.277E-11  0.100E-05  0.100E-05
  24.335  0.446E-05  0.139E-05  0.582E-06  0.582E-06  0.974E-07  0.213E-11  0.906E-06  0.906E-06
  24.355  0.402E-05  0.125E-05  0.523E-06  0.523E-06  0.858E-07  0.163E-11  0.815E-06  0.815E-06
  24.375  0.360E-05  0.112E-05  0.468E-06  0.468E-06  0.753E-07  0.124E-11  0.730E-06  0.730E-06
  24.395  0.321E-05  0.100E-05  0.417E-06  0.417E-06  0.658E-07  0.943E-12  0.652E-06  0.652E-06
  24.415  0.285E-05  0.892E-06  0.370E-06  0.370E-06  0.573E-07  0.712E-12  0.579E-06  0.579E-06
  24.435  0.252E-05  0.790E-06  0.327E-06  0.327E-06  0.497E-07  0.535E-12  0.512E-06  0.512E-06
  24.455  0.222E-05  0.696E-06  0.288E-06  0.288E-06  0.429E-07  0.401E-12  0.451E-06  0.451E-06
  24.475  0.194E-05  0.611E-06  0.252E-06  0.252E-06  0.369E-07  0.298E-12  0.395E-06  0.395E-06
  24.495  0.169E-05  0.533E-06  0.220E-06  0.220E-06  0.317E-07  0.221E-12  0.345E-06  0.345E-06
  24.515  0.147E-05  0.464E-06  0.191E-06  0.191E-06  0.270E-07  0.163E-12  0.300E-06  0.300E-06
  24.535  0.127E-05  0.402E-06  0.165E-06  0.165E-06  0.230E-07  0.120E-12  0.260E-06  0.260E-06
  24.555  0.110E-05  0.346E-06  0.142E-06  0.142E-06  0.195E-07  0.878E-13  0.224E-06  0.224E-06
  24.575  0.940E-06  0.297E-06  0.122E-06  0.122E-06  0.164E-07  0.639E-13  0.192E-06  0.192E-06
  24.595  0.802E-06  0.254E-06  0.104E-06  0.104E-06  0.138E-07  0.463E-13  0.164E-06  0.164E-06
  24.615  0.682E-06  0.216E-06  0.881E-07  0.881E-07  0.116E-07  0.334E-13  0.139E-06  0.139E-06
  24.635  0.577E-06  0.183E-06  0.745E-07  0.745E-07  0.963E-08  0.240E-13  0.118E-06  0.118E-06
  24.655  0.485E-06  0.154E-06  0.627E-07  0.627E-07  0.800E-08  0.171E-13  0.991E-07  0.991E-07
  24.675  0.407E-06  0.129E-06  0.525E-07  0.525E-07  0.662E-08  0.122E-13  0.831E-07  0.831E-07
  24.695  0.340E-06  0.108E-06  0.438E-07  0.438E-07  0.545E-08  0.862E-14  0.694E-07  0.694E-07
  24.715  0.282E-06  0.895E-07  0.364E-07  0.364E-07  0.447E-08  0.607E-14  0.576E-07  0.576E-07
  24.735  0.233E-06  0.741E-07  0.301E-07  0.301E-07  0.365E-08  0.426E-14  0.477E-07  0.477E-07
  24.755  0.192E-06  0.610E-07  0.247E-07  0.247E-07  0.297E-08  0.297E-14  0.392E-07  0.392E-07
  24.775  0.157E-06  0.500E-07  0.203E-07  0.203E-07  0.241E-08  0.206E-14  0.322E-07  0.322E-07
  24.795  0.128E-06  0.408E-07  0.165E-07  0.165E-07  0.194E-08  0.143E-14  0.262E-07  0.262E-07
  24.815  0.104E-06  0.331E-07  0.134E-07  0.134E-07  0.156E-08  0.982E-15  0.213E-07  0.213E-07
  24.835  0.841E-07  0.268E-07  0.108E-07  0.108E-07  0.125E-08  0.672E-15  0.172E-07  0.172E-07
  24.855  0.676E-07  0.215E-07  0.870E-08  0.870E-08  0.995E-09  0.458E-15  0.138E-07  0.138E-07
  24.875  0.541E-07  0.173E-07  0.697E-08  0.697E-08  0.790E-09  0.311E-15  0.111E-07  0.111E-07
  24.895  0.431E-07  0.138E-07  0.555E-08  0.555E-08  0.624E-09  0.210E-15  0.883E-08  0.883E-08
  24.915  0.342E-07  0.109E-07  0.440E-08  0.440E-08  0.491E-09  0.141E-15  0.701E-08  0.701E-08
  24.935  0.270E-07  0.862E-08  0.347E-08  0.347E-08  0.384E-09  0.944E-16  0.553E-08  0.553E-08
  24.955  0.212E-07  0.678E-08  0.273E-08  0.273E-08  0.300E-09  0.628E-16  0.435E-08  0.435E-08
  24.975  0.166E-07  0.530E-08  0.213E-08  0.213E-08  0.233E-09  0.416E-16  0.340E-08  0.340E-08
  24.995  0.129E-07  0.413E-08  0.166E-08  0.166E-08  0.180E-09  0.275E-16  0.265E-08  0.265E-08
  25.015  0.100E-07  0.320E-08  0.129E-08  0.129E-08  0.139E-09  0.180E-16  0.205E-08  0.205E-08
  25.035  0.772E-08  0.247E-08  0.992E-09  0.992E-09  0.106E-09  0.118E-16  0.158E-08  0.158E-08
  25.055  0.593E-08  0.189E-08  0.761E-09  0.761E-09  0.811E-10  0.766E-17  0.121E-08  0.121E-08
  25.075  0.453E-08  0.145E-08  0.581E-09  0.581E-09  0.616E-10  0.492E-17  0.928E-09  0.928E-09
  25.095  0.344E-08  0.110E-08  0.442E-09  0.442E-09  0.466E-10  0.317E-17  0.705E-09  0.705E-09
  25.115  0.260E-08  0.833E-09  0.334E-09  0.334E-09  0.351E-10  0.204E-17  0.534E-09  0.534E-09
  25.135  0.196E-08  0.628E-09  0.252E-09  0.252E-09  0.263E-10  0.130E-17  0.402E-09  0.402E-09
  25.155  0.147E-08  0.471E-09  0.189E-09  0.189E-09  0.196E-10  0.827E-18  0.301E-09  0.301E-09
  25.175  0.110E-08  0.351E-09  0.141E-09  0.141E-09  0.146E-10  0.523E-18  0.225E-09  0.225E-09
