# E (eV)   ldos(E)   pdos(E)    pdos(E)    pdos(E)    pdos(E)    pdos(E)   
  -4.265  0.800E-08  0.181E-08  0.146E-08  0.146E-08  0.181E-08  0.146E-08
  -4.245  0.112E-07  0.252E-08  0.204E-08  0.204E-08  0.252E-08  0.204E-08
  -4.225  0.155E-07  0.351E-08  0.284E-08  0.284E-08  0.351E-08  0.284E-08
  -4.205  0.215E-07  0.485E-08  0.393E-08  0.393E-08  0.485E-08  0.393E-08
  -4.185  0.296E-07  0.669E-08  0.542E-08  0.542E-08  0.669E-08  0.542E-08
  -4.165  0.407E-07  0.918E-08  0.744E-08  0.744E-08  0.918E-08  0.744E-08
  -4.145  0.556E-07  0.125E-07  0.102E-07  0.102E-07  0.125E-07  0.102E-07
  -4.125  0.757E-07  0.171E-07  0.138E-07  0.138E-07  0.171E-07  0.138E-07
  -4.105  0.103E-06  0.231E-07  0.188E-07  0.188E-07  0.231E-07  0.188E-07
  -4.085  0.138E-06  0.312E-07  0.253E-07  0.253E-07  0.312E-07  0.253E-07
  -4.065  0.186E-06  0.420E-07  0.341E-07  0.341E-07  0.420E-07  0.341E-07
  -4.045  0.249E-06  0.562E-07  0.456E-07  0.456E-07  0.562E-07  0.456E-07
  -4.025  0.332E-06  0.749E-07  0.609E-07  0.609E-07  0.749E-07  0.609E-07
  -4.005  0.441E-06  0.994E-07  0.808E-07  0.808E-07  0.994E-07  0.808E-07
  -3.985  0.584E-06  0.131E-06  0.107E-06  0.107E-06  0.131E-06  0.107E-06
  -3.965  0.769E-06  0.173E-06  0.141E-06  0.141E-06  0.173E-06  0.141E-06
  -3.945  0.101E-05  0.227E-06  0.185E-06  0.185E-06  0.227E-06  0.185E-06
  -3.925  0.132E-05  0.296E-06  0.241E-06  0.241E-06  0.296E-06  0.241E-06
  -3.905  0.171E-05  0.386E-06  0.314E-06  0.314E-06  0.386E-06  0.314E-06
  -3.885  0.222E-05  0.499E-06  0.407E-06  0.407E-06  0.499E-06  0.407E-06
  -3.865  0.287E-05  0.645E-06  0.526E-06  0.526E-06  0.645E-06  0.526E-06
  -3.845  0.369E-05  0.828E-06  0.676E-06  0.676E-06  0.828E-06  0.676E-06
  -3.825  0.472E-05  0.106E-05  0.866E-06  0.866E-06  0.106E-05  0.866E-06
  -3.805  0.602E-05  0.135E-05  0.111E-05  0.111E-05  0.135E-05  0.111E-05
  -3.785  0.765E-05  0.172E-05  0.141E-05  0.141E-05  0.172E-05  0.141E-05
  -3.765  0.968E-05  0.217E-05  0.178E-05  0.178E-05  0.217E-05  0.178E-05
  -3.745  0.122E-04  0.274E-05  0.224E-05  0.224E-05  0.274E-05  0.224E-05
  -3.725  0.153E-04  0.344E-05  0.282E-05  0.282E-05  0.344E-05  0.282E-05
  -3.705  0.192E-04  0.430E-05  0.353E-05  0.353E-05  0.430E-05  0.353E-05
  -3.685  0.239E-04  0.536E-05  0.440E-05  0.440E-05  0.536E-05  0.440E-05
  -3.665  0.297E-04  0.665E-05  0.546E-05  0.546E-05  0.665E-05  0.546E-05
  -3.645  0.367E-04  0.823E-05  0.676E-05  0.676E-05  0.823E-05  0.676E-05
  -3.625  0.453E-04  0.101E-04  0.833E-05  0.833E-05  0.101E-04  0.833E-05
  -3.605  0.556E-04  0.124E-04  0.102E-04  0.102E-04  0.124E-04  0.102E-04
  -3.585  0.680E-04  0.152E-04  0.125E-04  0.125E-04  0.152E-04  0.125E-04
  -3.565  0.829E-04  0.185E-04  0.153E-04  0.153E-04  0.185E-04  0.153E-04
  -3.545  0.101E-03  0.225E-04  0.185E-04  0.185E-04  0.225E-04  0.185E-04
  -3.525  0.122E-03  0.272E-04  0.224E-04  0.224E-04  0.272E-04  0.224E-04
  -3.505  0.147E-03  0.328E-04  0.271E-04  0.271E-04  0.328E-04  0.271E-04
  -3.485  0.176E-03  0.394E-04  0.325E-04  0.325E-04  0.394E-04  0.325E-04
  -3.465  0.211E-03  0.471E-04  0.389E-04  0.389E-04  0.471E-04  0.389E-04
  -3.445  0.252E-03  0.562E-04  0.465E-04  0.465E-04  0.562E-04  0.465E-04
  -3.425  0.299E-03  0.668E-04  0.553E-04  0.553E-04  0.668E-04  0.553E-04
  -3.405  0.355E-03  0.791E-04  0.655E-04  0.655E-04  0.791E-04  0.655E-04
  -3.385  0.419E-03  0.934E-04  0.774E-04  0.774E-04  0.934E-04  0.774E-04
  -3.365  0.493E-03  0.110E-03  0.911E-04  0.911E-04  0.110E-03  0.911E-04
  -3.345  0.578E-03  0.129E-03  0.107E-03  0.107E-03  0.129E-03  0.107E-03
  -3.325  0.676E-03  0.150E-03  0.125E-03  0.125E-03  0.150E-03  0.125E-03
  -3.305  0.787E-03  0.175E-03  0.146E-03  0.146E-03  0.175E-03  0.146E-03
  -3.285  0.914E-03  0.203E-03  0.169E-03  0.169E-03  0.203E-03  0.169E-03
  -3.265  0.106E-02  0.235E-03  0.196E-03  0.196E-03  0.235E-03  0.196E-03
  -3.245  0.122E-02  0.271E-03  0.226E-03  0.226E-03  0.271E-03  0.226E-03
  -3.225  0.140E-02  0.312E-03  0.260E-03  0.260E-03  0.312E-03  0.260E-03
  -3.205  0.161E-02  0.358E-03  0.298E-03  0.298E-03  0.358E-03  0.298E-03
  -3.185  0.184E-02  0.409E-03  0.341E-03  0.341E-03  0.409E-03  0.341E-03
  -3.165  0.210E-02  0.466E-03  0.389E-03  0.389E-03  0.466E-03  0.389E-03
  -3.145  0.238E-02  0.529E-03  0.442E-03  0.442E-03  0.529E-03  0.442E-03
  -3.125  0.270E-02  0.599E-03  0.501E-03  0.501E-03  0.599E-03  0.501E-03
  -3.105  0.305E-02  0.676E-03  0.567E-03  0.567E-03  0.676E-03  0.567E-03
  -3.085  0.344E-02  0.761E-03  0.639E-03  0.639E-03  0.761E-03  0.639E-03
  -3.065  0.386E-02  0.855E-03  0.718E-03  0.718E-03  0.855E-03  0.718E-03
  -3.045  0.433E-02  0.957E-03  0.804E-03  0.804E-03  0.957E-03  0.804E-03
  -3.025  0.483E-02  0.107E-02  0.899E-03  0.899E-03  0.107E-02  0.899E-03
  -3.005  0.539E-02  0.119E-02  0.100E-02  0.100E-02  0.119E-02  0.100E-02
  -2.985  0.598E-02  0.132E-02  0.111E-02  0.111E-02  0.132E-02  0.111E-02
  -2.965  0.663E-02  0.146E-02  0.123E-02  0.123E-02  0.146E-02  0.123E-02
  -2.945  0.733E-02  0.162E-02  0.137E-02  0.137E-02  0.162E-02  0.137E-02
  -2.925  0.808E-02  0.178E-02  0.151E-02  0.151E-02  0.178E-02  0.151E-02
  -2.905  0.889E-02  0.196E-02  0.166E-02  0.166E-02  0.196E-02  0.166E-02
  -2.885  0.976E-02  0.215E-02  0.182E-02  0.182E-02  0.215E-02  0.182E-02
  -2.865  0.107E-01  0.235E-02  0.199E-02  0.199E-02  0.235E-02  0.199E-02
  -2.845  0.117E-01  0.256E-02  0.218E-02  0.218E-02  0.256E-02  0.218E-02
  -2.825  0.127E-01  0.279E-02  0.237E-02  0.237E-02  0.279E-02  0.237E-02
  -2.805  0.138E-01  0.303E-02  0.258E-02  0.258E-02  0.303E-02  0.258E-02
  -2.785  0.150E-01  0.329E-02  0.280E-02  0.280E-02  0.329E-02  0.280E-02
  -2.765  0.162E-01  0.356E-02  0.303E-02  0.303E-02  0.356E-02  0.303E-02
  -2.745  0.175E-01  0.384E-02  0.328E-02  0.328E-02  0.384E-02  0.328E-02
  -2.725  0.189E-01  0.414E-02  0.354E-02  0.354E-02  0.414E-02  0.354E-02
  -2.705  0.203E-01  0.445E-02  0.381E-02  0.381E-02  0.445E-02  0.381E-02
  -2.685  0.218E-01  0.477E-02  0.409E-02  0.409E-02  0.477E-02  0.409E-02
  -2.665  0.234E-01  0.511E-02  0.438E-02  0.438E-02  0.511E-02  0.438E-02
  -2.645  0.250E-01  0.546E-02  0.469E-02  0.469E-02  0.546E-02  0.469E-02
  -2.625  0.267E-01  0.582E-02  0.501E-02  0.501E-02  0.582E-02  0.501E-02
  -2.605  0.284E-01  0.620E-02  0.534E-02  0.534E-02  0.620E-02  0.534E-02
  -2.585  0.302E-01  0.659E-02  0.569E-02  0.569E-02  0.659E-02  0.569E-02
  -2.565  0.321E-01  0.699E-02  0.604E-02  0.604E-02  0.699E-02  0.604E-02
  -2.545  0.340E-01  0.741E-02  0.641E-02  0.641E-02  0.741E-02  0.641E-02
  -2.525  0.360E-01  0.784E-02  0.679E-02  0.679E-02  0.784E-02  0.679E-02
  -2.505  0.381E-01  0.827E-02  0.718E-02  0.718E-02  0.827E-02  0.718E-02
  -2.485  0.402E-01  0.872E-02  0.758E-02  0.758E-02  0.872E-02  0.758E-02
  -2.465  0.423E-01  0.918E-02  0.799E-02  0.799E-02  0.918E-02  0.799E-02
  -2.445  0.445E-01  0.965E-02  0.841E-02  0.841E-02  0.965E-02  0.841E-02
  -2.425  0.468E-01  0.101E-01  0.884E-02  0.884E-02  0.101E-01  0.884E-02
  -2.405  0.491E-01  0.106E-01  0.929E-02  0.929E-02  0.106E-01  0.929E-02
  -2.385  0.515E-01  0.111E-01  0.974E-02  0.974E-02  0.111E-01  0.974E-02
  -2.365  0.538E-01  0.116E-01  0.102E-01  0.102E-01  0.116E-01  0.102E-01
  -2.345  0.563E-01  0.121E-01  0.107E-01  0.107E-01  0.121E-01  0.107E-01
  -2.325  0.587E-01  0.127E-01  0.111E-01  0.111E-01  0.127E-01  0.111E-01
  -2.305  0.613E-01  0.132E-01  0.116E-01  0.116E-01  0.132E-01  0.116E-01
  -2.285  0.638E-01  0.137E-01  0.121E-01  0.121E-01  0.137E-01  0.121E-01
  -2.265  0.664E-01  0.143E-01  0.126E-01  0.126E-01  0.143E-01  0.126E-01
  -2.245  0.690E-01  0.148E-01  0.131E-01  0.131E-01  0.148E-01  0.131E-01
  -2.225  0.716E-01  0.154E-01  0.136E-01  0.136E-01  0.154E-01  0.136E-01
  -2.205  0.743E-01  0.159E-01  0.141E-01  0.141E-01  0.159E-01  0.141E-01
  -2.185  0.769E-01  0.165E-01  0.147E-01  0.147E-01  0.165E-01  0.147E-01
  -2.165  0.796E-01  0.170E-01  0.152E-01  0.152E-01  0.170E-01  0.152E-01
  -2.145  0.824E-01  0.176E-01  0.157E-01  0.157E-01  0.176E-01  0.157E-01
  -2.125  0.851E-01  0.182E-01  0.163E-01  0.163E-01  0.182E-01  0.163E-01
  -2.105  0.879E-01  0.187E-01  0.168E-01  0.168E-01  0.187E-01  0.168E-01
  -2.085  0.907E-01  0.193E-01  0.173E-01  0.173E-01  0.193E-01  0.173E-01
  -2.065  0.934E-01  0.199E-01  0.179E-01  0.179E-01  0.199E-01  0.179E-01
  -2.045  0.962E-01  0.204E-01  0.184E-01  0.184E-01  0.204E-01  0.184E-01
  -2.025  0.991E-01  0.210E-01  0.190E-01  0.190E-01  0.210E-01  0.190E-01
  -2.005  0.102E+00  0.216E-01  0.196E-01  0.196E-01  0.216E-01  0.196E-01
  -1.985  0.105E+00  0.222E-01  0.201E-01  0.201E-01  0.222E-01  0.201E-01
  -1.965  0.108E+00  0.227E-01  0.207E-01  0.207E-01  0.227E-01  0.207E-01
  -1.945  0.110E+00  0.233E-01  0.212E-01  0.212E-01  0.233E-01  0.212E-01
  -1.925  0.113E+00  0.239E-01  0.218E-01  0.218E-01  0.239E-01  0.218E-01
  -1.905  0.116E+00  0.245E-01  0.224E-01  0.224E-01  0.245E-01  0.224E-01
  -1.885  0.119E+00  0.250E-01  0.230E-01  0.230E-01  0.250E-01  0.230E-01
  -1.865  0.122E+00  0.256E-01  0.235E-01  0.235E-01  0.256E-01  0.235E-01
  -1.845  0.125E+00  0.262E-01  0.241E-01  0.241E-01  0.262E-01  0.241E-01
  -1.825  0.127E+00  0.267E-01  0.247E-01  0.247E-01  0.267E-01  0.247E-01
  -1.805  0.130E+00  0.273E-01  0.252E-01  0.252E-01  0.273E-01  0.252E-01
  -1.785  0.133E+00  0.279E-01  0.258E-01  0.258E-01  0.279E-01  0.258E-01
  -1.765  0.136E+00  0.284E-01  0.264E-01  0.264E-01  0.284E-01  0.264E-01
  -1.745  0.139E+00  0.290E-01  0.270E-01  0.270E-01  0.290E-01  0.270E-01
  -1.725  0.142E+00  0.295E-01  0.275E-01  0.275E-01  0.295E-01  0.275E-01
  -1.705  0.144E+00  0.301E-01  0.281E-01  0.281E-01  0.301E-01  0.281E-01
  -1.685  0.147E+00  0.306E-01  0.287E-01  0.287E-01  0.306E-01  0.287E-01
  -1.665  0.150E+00  0.312E-01  0.292E-01  0.292E-01  0.312E-01  0.292E-01
  -1.645  0.153E+00  0.317E-01  0.298E-01  0.298E-01  0.317E-01  0.298E-01
  -1.625  0.156E+00  0.323E-01  0.304E-01  0.304E-01  0.323E-01  0.304E-01
  -1.605  0.158E+00  0.328E-01  0.309E-01  0.309E-01  0.328E-01  0.309E-01
  -1.585  0.161E+00  0.333E-01  0.315E-01  0.315E-01  0.333E-01  0.315E-01
  -1.565  0.164E+00  0.339E-01  0.321E-01  0.321E-01  0.339E-01  0.321E-01
  -1.545  0.167E+00  0.344E-01  0.326E-01  0.326E-01  0.344E-01  0.326E-01
  -1.525  0.169E+00  0.349E-01  0.332E-01  0.332E-01  0.349E-01  0.332E-01
  -1.505  0.172E+00  0.354E-01  0.337E-01  0.337E-01  0.354E-01  0.337E-01
  -1.485  0.175E+00  0.359E-01  0.343E-01  0.343E-01  0.359E-01  0.343E-01
  -1.465  0.177E+00  0.364E-01  0.348E-01  0.348E-01  0.364E-01  0.348E-01
  -1.445  0.180E+00  0.369E-01  0.354E-01  0.354E-01  0.369E-01  0.354E-01
  -1.425  0.183E+00  0.374E-01  0.359E-01  0.359E-01  0.374E-01  0.359E-01
  -1.405  0.185E+00  0.379E-01  0.365E-01  0.365E-01  0.379E-01  0.365E-01
  -1.385  0.188E+00  0.384E-01  0.370E-01  0.370E-01  0.384E-01  0.370E-01
  -1.365  0.191E+00  0.389E-01  0.376E-01  0.376E-01  0.389E-01  0.376E-01
  -1.345  0.193E+00  0.394E-01  0.381E-01  0.381E-01  0.394E-01  0.381E-01
  -1.325  0.196E+00  0.399E-01  0.386E-01  0.386E-01  0.399E-01  0.386E-01
  -1.305  0.198E+00  0.404E-01  0.392E-01  0.392E-01  0.404E-01  0.392E-01
  -1.285  0.201E+00  0.408E-01  0.397E-01  0.397E-01  0.408E-01  0.397E-01
  -1.265  0.203E+00  0.413E-01  0.402E-01  0.402E-01  0.413E-01  0.402E-01
  -1.245  0.206E+00  0.418E-01  0.407E-01  0.407E-01  0.418E-01  0.407E-01
  -1.225  0.208E+00  0.422E-01  0.412E-01  0.412E-01  0.422E-01  0.412E-01
  -1.205  0.211E+00  0.427E-01  0.418E-01  0.418E-01  0.427E-01  0.418E-01
  -1.185  0.213E+00  0.431E-01  0.423E-01  0.423E-01  0.431E-01  0.423E-01
  -1.165  0.215E+00  0.436E-01  0.428E-01  0.428E-01  0.436E-01  0.428E-01
  -1.145  0.218E+00  0.440E-01  0.433E-01  0.433E-01  0.440E-01  0.433E-01
  -1.125  0.220E+00  0.444E-01  0.437E-01  0.437E-01  0.444E-01  0.437E-01
  -1.105  0.222E+00  0.449E-01  0.442E-01  0.442E-01  0.449E-01  0.442E-01
  -1.085  0.225E+00  0.453E-01  0.447E-01  0.447E-01  0.453E-01  0.447E-01
  -1.065  0.227E+00  0.457E-01  0.452E-01  0.452E-01  0.457E-01  0.452E-01
  -1.045  0.229E+00  0.461E-01  0.457E-01  0.457E-01  0.461E-01  0.457E-01
  -1.025  0.232E+00  0.465E-01  0.462E-01  0.462E-01  0.465E-01  0.462E-01
  -1.005  0.234E+00  0.469E-01  0.466E-01  0.466E-01  0.469E-01  0.466E-01
  -0.985  0.236E+00  0.473E-01  0.471E-01  0.471E-01  0.473E-01  0.471E-01
  -0.965  0.238E+00  0.477E-01  0.476E-01  0.476E-01  0.477E-01  0.476E-01
  -0.945  0.240E+00  0.481E-01  0.480E-01  0.480E-01  0.481E-01  0.480E-01
  -0.925  0.242E+00  0.485E-01  0.485E-01  0.485E-01  0.485E-01  0.485E-01
  -0.905  0.245E+00  0.489E-01  0.490E-01  0.490E-01  0.489E-01  0.490E-01
  -0.885  0.247E+00  0.492E-01  0.494E-01  0.494E-01  0.492E-01  0.494E-01
  -0.865  0.249E+00  0.496E-01  0.499E-01  0.499E-01  0.496E-01  0.499E-01
  -0.845  0.251E+00  0.500E-01  0.504E-01  0.504E-01  0.500E-01  0.504E-01
  -0.825  0.253E+00  0.503E-01  0.508E-01  0.508E-01  0.503E-01  0.508E-01
  -0.805  0.255E+00  0.507E-01  0.513E-01  0.513E-01  0.507E-01  0.513E-01
  -0.785  0.257E+00  0.510E-01  0.517E-01  0.517E-01  0.510E-01  0.517E-01
  -0.765  0.259E+00  0.514E-01  0.522E-01  0.522E-01  0.514E-01  0.522E-01
  -0.745  0.261E+00  0.518E-01  0.527E-01  0.527E-01  0.518E-01  0.527E-01
  -0.725  0.264E+00  0.521E-01  0.531E-01  0.531E-01  0.521E-01  0.531E-01
  -0.705  0.266E+00  0.525E-01  0.535E-01  0.535E-01  0.525E-01  0.535E-01
  -0.685  0.268E+00  0.528E-01  0.540E-01  0.540E-01  0.528E-01  0.540E-01
  -0.665  0.270E+00  0.531E-01  0.544E-01  0.544E-01  0.531E-01  0.544E-01
  -0.645  0.271E+00  0.535E-01  0.548E-01  0.548E-01  0.535E-01  0.548E-01
  -0.625  0.273E+00  0.538E-01  0.553E-01  0.553E-01  0.538E-01  0.553E-01
  -0.605  0.275E+00  0.541E-01  0.557E-01  0.557E-01  0.541E-01  0.557E-01
  -0.585  0.277E+00  0.545E-01  0.561E-01  0.561E-01  0.545E-01  0.561E-01
  -0.565  0.279E+00  0.548E-01  0.565E-01  0.565E-01  0.548E-01  0.565E-01
  -0.545  0.281E+00  0.551E-01  0.569E-01  0.569E-01  0.551E-01  0.569E-01
  -0.525  0.283E+00  0.554E-01  0.573E-01  0.573E-01  0.554E-01  0.573E-01
  -0.505  0.284E+00  0.557E-01  0.577E-01  0.577E-01  0.557E-01  0.577E-01
  -0.485  0.286E+00  0.560E-01  0.581E-01  0.581E-01  0.560E-01  0.581E-01
  -0.465  0.288E+00  0.563E-01  0.585E-01  0.585E-01  0.563E-01  0.585E-01
  -0.445  0.290E+00  0.565E-01  0.588E-01  0.588E-01  0.565E-01  0.588E-01
  -0.425  0.291E+00  0.568E-01  0.592E-01  0.592E-01  0.568E-01  0.592E-01
  -0.405  0.293E+00  0.571E-01  0.596E-01  0.596E-01  0.571E-01  0.596E-01
  -0.385  0.295E+00  0.574E-01  0.600E-01  0.600E-01  0.574E-01  0.600E-01
  -0.365  0.297E+00  0.576E-01  0.604E-01  0.604E-01  0.576E-01  0.604E-01
  -0.345  0.298E+00  0.579E-01  0.608E-01  0.608E-01  0.579E-01  0.608E-01
  -0.325  0.300E+00  0.582E-01  0.613E-01  0.613E-01  0.582E-01  0.613E-01
  -0.305  0.302E+00  0.585E-01  0.617E-01  0.617E-01  0.585E-01  0.617E-01
  -0.285  0.304E+00  0.587E-01  0.621E-01  0.621E-01  0.587E-01  0.621E-01
  -0.265  0.306E+00  0.590E-01  0.625E-01  0.625E-01  0.590E-01  0.625E-01
  -0.245  0.307E+00  0.593E-01  0.629E-01  0.629E-01  0.593E-01  0.629E-01
  -0.225  0.309E+00  0.596E-01  0.634E-01  0.634E-01  0.596E-01  0.634E-01
  -0.205  0.311E+00  0.598E-01  0.638E-01  0.638E-01  0.598E-01  0.638E-01
  -0.185  0.313E+00  0.601E-01  0.642E-01  0.642E-01  0.601E-01  0.642E-01
  -0.165  0.315E+00  0.604E-01  0.646E-01  0.646E-01  0.604E-01  0.646E-01
  -0.145  0.317E+00  0.607E-01  0.650E-01  0.650E-01  0.607E-01  0.650E-01
  -0.125  0.318E+00  0.610E-01  0.654E-01  0.654E-01  0.610E-01  0.654E-01
  -0.105  0.320E+00  0.613E-01  0.659E-01  0.659E-01  0.613E-01  0.659E-01
  -0.085  0.322E+00  0.616E-01  0.662E-01  0.662E-01  0.616E-01  0.662E-01
  -0.065  0.324E+00  0.618E-01  0.666E-01  0.666E-01  0.618E-01  0.666E-01
  -0.045  0.325E+00  0.621E-01  0.670E-01  0.670E-01  0.621E-01  0.670E-01
  -0.025  0.327E+00  0.624E-01  0.674E-01  0.674E-01  0.624E-01  0.674E-01
  -0.005  0.329E+00  0.627E-01  0.677E-01  0.677E-01  0.627E-01  0.677E-01
   0.015  0.330E+00  0.629E-01  0.681E-01  0.681E-01  0.629E-01  0.681E-01
   0.035  0.332E+00  0.632E-01  0.684E-01  0.684E-01  0.632E-01  0.684E-01
   0.055  0.333E+00  0.635E-01  0.687E-01  0.687E-01  0.635E-01  0.687E-01
   0.075  0.335E+00  0.637E-01  0.690E-01  0.690E-01  0.637E-01  0.690E-01
   0.095  0.336E+00  0.640E-01  0.693E-01  0.693E-01  0.640E-01  0.693E-01
   0.115  0.337E+00  0.643E-01  0.696E-01  0.696E-01  0.643E-01  0.696E-01
   0.135  0.339E+00  0.645E-01  0.699E-01  0.699E-01  0.645E-01  0.699E-01
   0.155  0.340E+00  0.648E-01  0.702E-01  0.702E-01  0.648E-01  0.702E-01
   0.175  0.342E+00  0.650E-01  0.705E-01  0.705E-01  0.650E-01  0.705E-01
   0.195  0.343E+00  0.653E-01  0.708E-01  0.708E-01  0.653E-01  0.708E-01
   0.215  0.344E+00  0.656E-01  0.711E-01  0.711E-01  0.656E-01  0.711E-01
   0.235  0.346E+00  0.658E-01  0.714E-01  0.714E-01  0.658E-01  0.714E-01
   0.255  0.347E+00  0.661E-01  0.717E-01  0.717E-01  0.661E-01  0.717E-01
   0.275  0.349E+00  0.664E-01  0.720E-01  0.720E-01  0.664E-01  0.720E-01
   0.295  0.351E+00  0.668E-01  0.723E-01  0.723E-01  0.668E-01  0.723E-01
   0.315  0.352E+00  0.671E-01  0.727E-01  0.727E-01  0.671E-01  0.727E-01
   0.335  0.354E+00  0.674E-01  0.730E-01  0.730E-01  0.674E-01  0.730E-01
   0.355  0.356E+00  0.678E-01  0.734E-01  0.734E-01  0.678E-01  0.734E-01
   0.375  0.357E+00  0.682E-01  0.737E-01  0.737E-01  0.682E-01  0.737E-01
   0.395  0.359E+00  0.686E-01  0.741E-01  0.741E-01  0.686E-01  0.741E-01
   0.415  0.361E+00  0.690E-01  0.744E-01  0.744E-01  0.690E-01  0.744E-01
   0.435  0.363E+00  0.694E-01  0.747E-01  0.747E-01  0.694E-01  0.747E-01
   0.455  0.365E+00  0.698E-01  0.751E-01  0.751E-01  0.698E-01  0.751E-01
   0.475  0.367E+00  0.703E-01  0.754E-01  0.754E-01  0.703E-01  0.754E-01
   0.495  0.369E+00  0.707E-01  0.757E-01  0.757E-01  0.707E-01  0.757E-01
   0.515  0.370E+00  0.712E-01  0.760E-01  0.760E-01  0.712E-01  0.760E-01
   0.535  0.372E+00  0.717E-01  0.763E-01  0.763E-01  0.717E-01  0.763E-01
   0.555  0.374E+00  0.721E-01  0.766E-01  0.766E-01  0.721E-01  0.766E-01
   0.575  0.376E+00  0.726E-01  0.768E-01  0.768E-01  0.726E-01  0.768E-01
   0.595  0.377E+00  0.731E-01  0.770E-01  0.770E-01  0.731E-01  0.770E-01
   0.615  0.378E+00  0.735E-01  0.771E-01  0.771E-01  0.735E-01  0.771E-01
   0.635  0.380E+00  0.740E-01  0.773E-01  0.773E-01  0.740E-01  0.773E-01
   0.655  0.381E+00  0.744E-01  0.774E-01  0.774E-01  0.744E-01  0.774E-01
   0.675  0.382E+00  0.748E-01  0.774E-01  0.774E-01  0.748E-01  0.774E-01
   0.695  0.383E+00  0.752E-01  0.774E-01  0.774E-01  0.752E-01  0.774E-01
   0.715  0.383E+00  0.756E-01  0.774E-01  0.774E-01  0.756E-01  0.774E-01
   0.735  0.384E+00  0.760E-01  0.774E-01  0.774E-01  0.760E-01  0.774E-01
   0.755  0.385E+00  0.763E-01  0.773E-01  0.773E-01  0.763E-01  0.773E-01
   0.775  0.385E+00  0.766E-01  0.772E-01  0.772E-01  0.766E-01  0.772E-01
   0.795  0.385E+00  0.770E-01  0.770E-01  0.770E-01  0.770E-01  0.770E-01
   0.815  0.385E+00  0.772E-01  0.769E-01  0.769E-01  0.772E-01  0.769E-01
   0.835  0.385E+00  0.775E-01  0.767E-01  0.767E-01  0.775E-01  0.767E-01
   0.855  0.385E+00  0.777E-01  0.765E-01  0.765E-01  0.777E-01  0.765E-01
   0.875  0.385E+00  0.779E-01  0.763E-01  0.763E-01  0.779E-01  0.763E-01
   0.895  0.384E+00  0.781E-01  0.760E-01  0.760E-01  0.781E-01  0.760E-01
   0.915  0.384E+00  0.783E-01  0.758E-01  0.758E-01  0.783E-01  0.758E-01
   0.935  0.383E+00  0.784E-01  0.755E-01  0.755E-01  0.784E-01  0.755E-01
   0.955  0.383E+00  0.786E-01  0.753E-01  0.753E-01  0.786E-01  0.753E-01
   0.975  0.382E+00  0.787E-01  0.750E-01  0.750E-01  0.787E-01  0.750E-01
   0.995  0.382E+00  0.787E-01  0.747E-01  0.747E-01  0.787E-01  0.747E-01
   1.015  0.381E+00  0.788E-01  0.745E-01  0.745E-01  0.788E-01  0.745E-01
   1.035  0.380E+00  0.788E-01  0.742E-01  0.742E-01  0.788E-01  0.742E-01
   1.055  0.379E+00  0.788E-01  0.739E-01  0.739E-01  0.788E-01  0.739E-01
   1.075  0.378E+00  0.787E-01  0.735E-01  0.735E-01  0.787E-01  0.735E-01
   1.095  0.377E+00  0.786E-01  0.732E-01  0.732E-01  0.786E-01  0.732E-01
   1.115  0.376E+00  0.785E-01  0.729E-01  0.729E-01  0.785E-01  0.729E-01
   1.135  0.374E+00  0.783E-01  0.725E-01  0.725E-01  0.783E-01  0.725E-01
   1.155  0.373E+00  0.781E-01  0.721E-01  0.721E-01  0.781E-01  0.721E-01
   1.175  0.371E+00  0.779E-01  0.717E-01  0.717E-01  0.779E-01  0.717E-01
   1.195  0.369E+00  0.776E-01  0.712E-01  0.712E-01  0.776E-01  0.712E-01
   1.215  0.367E+00  0.773E-01  0.707E-01  0.707E-01  0.773E-01  0.707E-01
   1.235  0.364E+00  0.769E-01  0.702E-01  0.702E-01  0.769E-01  0.702E-01
   1.255  0.362E+00  0.765E-01  0.696E-01  0.696E-01  0.765E-01  0.696E-01
   1.275  0.359E+00  0.760E-01  0.690E-01  0.690E-01  0.760E-01  0.690E-01
   1.295  0.356E+00  0.755E-01  0.684E-01  0.684E-01  0.755E-01  0.684E-01
   1.315  0.353E+00  0.749E-01  0.677E-01  0.677E-01  0.749E-01  0.677E-01
   1.335  0.349E+00  0.743E-01  0.670E-01  0.670E-01  0.743E-01  0.670E-01
   1.355  0.346E+00  0.736E-01  0.662E-01  0.662E-01  0.736E-01  0.662E-01
   1.375  0.342E+00  0.729E-01  0.654E-01  0.654E-01  0.729E-01  0.654E-01
   1.395  0.338E+00  0.722E-01  0.646E-01  0.646E-01  0.722E-01  0.646E-01
   1.415  0.334E+00  0.714E-01  0.637E-01  0.637E-01  0.714E-01  0.637E-01
   1.435  0.330E+00  0.706E-01  0.628E-01  0.628E-01  0.706E-01  0.628E-01
   1.455  0.325E+00  0.697E-01  0.619E-01  0.619E-01  0.697E-01  0.619E-01
   1.475  0.321E+00  0.689E-01  0.610E-01  0.610E-01  0.689E-01  0.610E-01
   1.495  0.316E+00  0.680E-01  0.601E-01  0.601E-01  0.680E-01  0.601E-01
   1.515  0.312E+00  0.671E-01  0.592E-01  0.592E-01  0.671E-01  0.592E-01
   1.535  0.307E+00  0.662E-01  0.583E-01  0.583E-01  0.662E-01  0.583E-01
   1.555  0.303E+00  0.653E-01  0.574E-01  0.574E-01  0.653E-01  0.574E-01
   1.575  0.298E+00  0.643E-01  0.565E-01  0.565E-01  0.643E-01  0.565E-01
   1.595  0.294E+00  0.634E-01  0.556E-01  0.556E-01  0.634E-01  0.556E-01
   1.615  0.289E+00  0.625E-01  0.548E-01  0.548E-01  0.625E-01  0.548E-01
   1.635  0.285E+00  0.616E-01  0.540E-01  0.540E-01  0.616E-01  0.540E-01
   1.655  0.281E+00  0.608E-01  0.532E-01  0.532E-01  0.608E-01  0.532E-01
   1.675  0.277E+00  0.599E-01  0.524E-01  0.524E-01  0.599E-01  0.524E-01
   1.695  0.273E+00  0.590E-01  0.517E-01  0.517E-01  0.590E-01  0.517E-01
   1.715  0.269E+00  0.582E-01  0.510E-01  0.510E-01  0.582E-01  0.510E-01
   1.735  0.266E+00  0.573E-01  0.503E-01  0.503E-01  0.573E-01  0.503E-01
   1.755  0.262E+00  0.565E-01  0.496E-01  0.496E-01  0.565E-01  0.496E-01
   1.775  0.258E+00  0.557E-01  0.490E-01  0.490E-01  0.557E-01  0.490E-01
   1.795  0.255E+00  0.549E-01  0.483E-01  0.483E-01  0.549E-01  0.483E-01
   1.815  0.251E+00  0.540E-01  0.477E-01  0.477E-01  0.540E-01  0.477E-01
   1.835  0.248E+00  0.532E-01  0.471E-01  0.471E-01  0.532E-01  0.471E-01
   1.855  0.244E+00  0.524E-01  0.464E-01  0.464E-01  0.524E-01  0.464E-01
   1.875  0.241E+00  0.516E-01  0.458E-01  0.458E-01  0.516E-01  0.458E-01
   1.895  0.237E+00  0.507E-01  0.451E-01  0.451E-01  0.507E-01  0.451E-01
   1.915  0.233E+00  0.499E-01  0.445E-01  0.445E-01  0.499E-01  0.445E-01
   1.935  0.229E+00  0.490E-01  0.438E-01  0.438E-01  0.490E-01  0.438E-01
   1.955  0.225E+00  0.481E-01  0.431E-01  0.431E-01  0.481E-01  0.431E-01
   1.975  0.221E+00  0.472E-01  0.423E-01  0.423E-01  0.472E-01  0.423E-01
   1.995  0.217E+00  0.463E-01  0.415E-01  0.415E-01  0.463E-01  0.415E-01
   2.015  0.213E+00  0.453E-01  0.407E-01  0.407E-01  0.453E-01  0.407E-01
   2.035  0.208E+00  0.443E-01  0.399E-01  0.399E-01  0.443E-01  0.399E-01
   2.055  0.204E+00  0.433E-01  0.391E-01  0.391E-01  0.433E-01  0.391E-01
   2.075  0.199E+00  0.423E-01  0.382E-01  0.382E-01  0.423E-01  0.382E-01
   2.095  0.194E+00  0.413E-01  0.373E-01  0.373E-01  0.413E-01  0.373E-01
   2.115  0.190E+00  0.402E-01  0.364E-01  0.364E-01  0.402E-01  0.364E-01
   2.135  0.185E+00  0.392E-01  0.354E-01  0.354E-01  0.392E-01  0.354E-01
   2.155  0.180E+00  0.381E-01  0.345E-01  0.345E-01  0.381E-01  0.345E-01
   2.175  0.175E+00  0.371E-01  0.335E-01  0.335E-01  0.371E-01  0.335E-01
   2.195  0.170E+00  0.361E-01  0.325E-01  0.325E-01  0.361E-01  0.325E-01
   2.215  0.165E+00  0.350E-01  0.316E-01  0.316E-01  0.350E-01  0.316E-01
   2.235  0.160E+00  0.340E-01  0.306E-01  0.306E-01  0.340E-01  0.306E-01
   2.255  0.155E+00  0.330E-01  0.297E-01  0.297E-01  0.330E-01  0.297E-01
   2.275  0.150E+00  0.320E-01  0.288E-01  0.288E-01  0.320E-01  0.288E-01
   2.295  0.146E+00  0.311E-01  0.278E-01  0.278E-01  0.311E-01  0.278E-01
   2.315  0.141E+00  0.302E-01  0.270E-01  0.270E-01  0.302E-01  0.270E-01
   2.335  0.137E+00  0.293E-01  0.261E-01  0.261E-01  0.293E-01  0.261E-01
   2.355  0.133E+00  0.284E-01  0.253E-01  0.253E-01  0.284E-01  0.253E-01
   2.375  0.129E+00  0.276E-01  0.245E-01  0.245E-01  0.276E-01  0.245E-01
   2.395  0.125E+00  0.268E-01  0.237E-01  0.237E-01  0.268E-01  0.237E-01
   2.415  0.121E+00  0.260E-01  0.230E-01  0.230E-01  0.260E-01  0.230E-01
   2.435  0.117E+00  0.253E-01  0.222E-01  0.222E-01  0.253E-01  0.222E-01
   2.455  0.114E+00  0.246E-01  0.216E-01  0.216E-01  0.246E-01  0.216E-01
   2.475  0.110E+00  0.239E-01  0.209E-01  0.209E-01  0.239E-01  0.209E-01
   2.495  0.107E+00  0.232E-01  0.203E-01  0.203E-01  0.232E-01  0.203E-01
   2.515  0.104E+00  0.226E-01  0.197E-01  0.197E-01  0.226E-01  0.197E-01
   2.535  0.101E+00  0.220E-01  0.191E-01  0.191E-01  0.220E-01  0.191E-01
   2.555  0.981E-01  0.213E-01  0.185E-01  0.185E-01  0.213E-01  0.185E-01
   2.575  0.952E-01  0.207E-01  0.179E-01  0.179E-01  0.207E-01  0.179E-01
   2.595  0.924E-01  0.201E-01  0.174E-01  0.174E-01  0.201E-01  0.174E-01
   2.615  0.895E-01  0.195E-01  0.168E-01  0.168E-01  0.195E-01  0.168E-01
   2.635  0.867E-01  0.189E-01  0.163E-01  0.163E-01  0.189E-01  0.163E-01
   2.655  0.839E-01  0.183E-01  0.158E-01  0.158E-01  0.183E-01  0.158E-01
   2.675  0.811E-01  0.177E-01  0.153E-01  0.153E-01  0.177E-01  0.153E-01
   2.695  0.782E-01  0.170E-01  0.147E-01  0.147E-01  0.170E-01  0.147E-01
   2.715  0.754E-01  0.164E-01  0.142E-01  0.142E-01  0.164E-01  0.142E-01
   2.735  0.725E-01  0.157E-01  0.137E-01  0.137E-01  0.157E-01  0.137E-01
   2.755  0.697E-01  0.151E-01  0.131E-01  0.131E-01  0.151E-01  0.131E-01
   2.775  0.668E-01  0.145E-01  0.126E-01  0.126E-01  0.145E-01  0.126E-01
   2.795  0.639E-01  0.138E-01  0.121E-01  0.121E-01  0.138E-01  0.121E-01
   2.815  0.610E-01  0.131E-01  0.116E-01  0.116E-01  0.131E-01  0.116E-01
   2.835  0.582E-01  0.125E-01  0.111E-01  0.111E-01  0.125E-01  0.111E-01
   2.855  0.554E-01  0.119E-01  0.106E-01  0.106E-01  0.119E-01  0.106E-01
   2.875  0.526E-01  0.112E-01  0.101E-01  0.101E-01  0.112E-01  0.101E-01
   2.895  0.499E-01  0.106E-01  0.957E-02  0.957E-02  0.106E-01  0.957E-02
   2.915  0.473E-01  0.999E-02  0.910E-02  0.910E-02  0.999E-02  0.910E-02
   2.935  0.448E-01  0.940E-02  0.865E-02  0.865E-02  0.940E-02  0.865E-02
   2.955  0.423E-01  0.883E-02  0.822E-02  0.822E-02  0.883E-02  0.822E-02
   2.975  0.400E-01  0.829E-02  0.781E-02  0.781E-02  0.829E-02  0.781E-02
   2.995  0.378E-01  0.777E-02  0.743E-02  0.743E-02  0.777E-02  0.743E-02
   3.015  0.358E-01  0.728E-02  0.708E-02  0.708E-02  0.728E-02  0.708E-02
   3.035  0.339E-01  0.682E-02  0.676E-02  0.676E-02  0.682E-02  0.676E-02
   3.055  0.322E-01  0.639E-02  0.647E-02  0.647E-02  0.639E-02  0.647E-02
   3.075  0.307E-01  0.600E-02  0.623E-02  0.623E-02  0.600E-02  0.623E-02
   3.095  0.293E-01  0.564E-02  0.602E-02  0.602E-02  0.564E-02  0.602E-02
   3.115  0.282E-01  0.531E-02  0.586E-02  0.586E-02  0.531E-02  0.586E-02
   3.135  0.273E-01  0.502E-02  0.574E-02  0.574E-02  0.502E-02  0.574E-02
   3.155  0.265E-01  0.477E-02  0.567E-02  0.567E-02  0.477E-02  0.567E-02
   3.175  0.260E-01  0.455E-02  0.565E-02  0.565E-02  0.455E-02  0.565E-02
   3.195  0.257E-01  0.437E-02  0.567E-02  0.567E-02  0.437E-02  0.567E-02
   3.215  0.257E-01  0.422E-02  0.575E-02  0.575E-02  0.422E-02  0.575E-02
   3.235  0.259E-01  0.411E-02  0.589E-02  0.589E-02  0.411E-02  0.589E-02
   3.255  0.263E-01  0.403E-02  0.608E-02  0.608E-02  0.403E-02  0.608E-02
   3.275  0.270E-01  0.399E-02  0.633E-02  0.633E-02  0.399E-02  0.633E-02
   3.295  0.279E-01  0.398E-02  0.664E-02  0.664E-02  0.398E-02  0.664E-02
   3.315  0.291E-01  0.402E-02  0.702E-02  0.702E-02  0.402E-02  0.702E-02
   3.335  0.305E-01  0.408E-02  0.746E-02  0.746E-02  0.408E-02  0.746E-02
   3.355  0.323E-01  0.419E-02  0.797E-02  0.797E-02  0.419E-02  0.797E-02
   3.375  0.343E-01  0.433E-02  0.854E-02  0.854E-02  0.433E-02  0.854E-02
   3.395  0.366E-01  0.451E-02  0.919E-02  0.919E-02  0.451E-02  0.919E-02
   3.415  0.392E-01  0.473E-02  0.992E-02  0.992E-02  0.473E-02  0.992E-02
   3.435  0.421E-01  0.499E-02  0.107E-01  0.107E-01  0.499E-02  0.107E-01
   3.455  0.454E-01  0.529E-02  0.116E-01  0.116E-01  0.529E-02  0.116E-01
   3.475  0.489E-01  0.563E-02  0.125E-01  0.125E-01  0.563E-02  0.125E-01
   3.495  0.528E-01  0.602E-02  0.136E-01  0.136E-01  0.602E-02  0.136E-01
   3.515  0.569E-01  0.644E-02  0.147E-01  0.147E-01  0.644E-02  0.147E-01
   3.535  0.614E-01  0.692E-02  0.159E-01  0.159E-01  0.692E-02  0.159E-01
   3.555  0.662E-01  0.743E-02  0.171E-01  0.171E-01  0.743E-02  0.171E-01
   3.575  0.713E-01  0.799E-02  0.185E-01  0.185E-01  0.799E-02  0.185E-01
   3.595  0.767E-01  0.859E-02  0.199E-01  0.199E-01  0.859E-02  0.199E-01
   3.615  0.824E-01  0.923E-02  0.213E-01  0.213E-01  0.923E-02  0.213E-01
   3.635  0.883E-01  0.991E-02  0.228E-01  0.228E-01  0.991E-02  0.228E-01
   3.655  0.944E-01  0.106E-01  0.244E-01  0.244E-01  0.106E-01  0.244E-01
   3.675  0.101E+00  0.114E-01  0.260E-01  0.260E-01  0.114E-01  0.260E-01
   3.695  0.107E+00  0.122E-01  0.276E-01  0.276E-01  0.122E-01  0.276E-01
   3.715  0.114E+00  0.130E-01  0.293E-01  0.293E-01  0.130E-01  0.293E-01
   3.735  0.121E+00  0.138E-01  0.310E-01  0.310E-01  0.138E-01  0.310E-01
   3.755  0.127E+00  0.147E-01  0.326E-01  0.326E-01  0.147E-01  0.326E-01
   3.775  0.134E+00  0.155E-01  0.343E-01  0.343E-01  0.155E-01  0.343E-01
   3.795  0.141E+00  0.164E-01  0.359E-01  0.359E-01  0.164E-01  0.359E-01
   3.815  0.147E+00  0.173E-01  0.375E-01  0.375E-01  0.173E-01  0.375E-01
   3.835  0.153E+00  0.181E-01  0.390E-01  0.390E-01  0.181E-01  0.390E-01
   3.855  0.159E+00  0.190E-01  0.405E-01  0.405E-01  0.190E-01  0.405E-01
   3.875  0.165E+00  0.198E-01  0.419E-01  0.419E-01  0.198E-01  0.419E-01
   3.895  0.171E+00  0.206E-01  0.432E-01  0.432E-01  0.206E-01  0.432E-01
   3.915  0.176E+00  0.214E-01  0.444E-01  0.444E-01  0.214E-01  0.444E-01
   3.935  0.181E+00  0.221E-01  0.455E-01  0.455E-01  0.221E-01  0.455E-01
   3.955  0.185E+00  0.228E-01  0.464E-01  0.464E-01  0.228E-01  0.464E-01
   3.975  0.189E+00  0.234E-01  0.473E-01  0.473E-01  0.234E-01  0.473E-01
   3.995  0.192E+00  0.240E-01  0.480E-01  0.480E-01  0.240E-01  0.480E-01
   4.015  0.195E+00  0.245E-01  0.485E-01  0.485E-01  0.245E-01  0.485E-01
   4.035  0.197E+00  0.250E-01  0.490E-01  0.490E-01  0.250E-01  0.490E-01
   4.055  0.199E+00  0.254E-01  0.493E-01  0.493E-01  0.254E-01  0.493E-01
   4.075  0.200E+00  0.257E-01  0.494E-01  0.494E-01  0.257E-01  0.494E-01
   4.095  0.200E+00  0.260E-01  0.494E-01  0.494E-01  0.260E-01  0.494E-01
   4.115  0.200E+00  0.262E-01  0.493E-01  0.493E-01  0.262E-01  0.493E-01
   4.135  0.200E+00  0.264E-01  0.490E-01  0.490E-01  0.264E-01  0.490E-01
   4.155  0.199E+00  0.265E-01  0.487E-01  0.487E-01  0.265E-01  0.487E-01
   4.175  0.198E+00  0.265E-01  0.482E-01  0.482E-01  0.265E-01  0.482E-01
   4.195  0.196E+00  0.265E-01  0.476E-01  0.476E-01  0.265E-01  0.476E-01
   4.215  0.194E+00  0.265E-01  0.469E-01  0.469E-01  0.265E-01  0.469E-01
   4.235  0.191E+00  0.264E-01  0.461E-01  0.461E-01  0.264E-01  0.461E-01
   4.255  0.188E+00  0.262E-01  0.453E-01  0.453E-01  0.262E-01  0.453E-01
   4.275  0.185E+00  0.261E-01  0.444E-01  0.444E-01  0.261E-01  0.444E-01
   4.295  0.182E+00  0.259E-01  0.434E-01  0.434E-01  0.259E-01  0.434E-01
   4.315  0.178E+00  0.257E-01  0.424E-01  0.424E-01  0.257E-01  0.424E-01
   4.335  0.175E+00  0.254E-01  0.413E-01  0.413E-01  0.254E-01  0.413E-01
   4.355  0.171E+00  0.252E-01  0.403E-01  0.403E-01  0.252E-01  0.403E-01
   4.375  0.167E+00  0.249E-01  0.392E-01  0.392E-01  0.249E-01  0.392E-01
   4.395  0.164E+00  0.247E-01  0.381E-01  0.381E-01  0.247E-01  0.381E-01
   4.415  0.160E+00  0.244E-01  0.370E-01  0.370E-01  0.244E-01  0.370E-01
   4.435  0.156E+00  0.242E-01  0.359E-01  0.359E-01  0.242E-01  0.359E-01
   4.455  0.152E+00  0.239E-01  0.349E-01  0.349E-01  0.239E-01  0.349E-01
   4.475  0.149E+00  0.237E-01  0.338E-01  0.338E-01  0.237E-01  0.338E-01
   4.495  0.145E+00  0.235E-01  0.328E-01  0.328E-01  0.235E-01  0.328E-01
   4.515  0.142E+00  0.233E-01  0.318E-01  0.318E-01  0.233E-01  0.318E-01
   4.535  0.139E+00  0.231E-01  0.308E-01  0.308E-01  0.231E-01  0.308E-01
   4.555  0.136E+00  0.230E-01  0.299E-01  0.299E-01  0.230E-01  0.299E-01
   4.575  0.133E+00  0.228E-01  0.290E-01  0.290E-01  0.228E-01  0.290E-01
   4.595  0.130E+00  0.227E-01  0.281E-01  0.281E-01  0.227E-01  0.281E-01
   4.615  0.127E+00  0.226E-01  0.273E-01  0.273E-01  0.226E-01  0.273E-01
   4.635  0.124E+00  0.225E-01  0.265E-01  0.265E-01  0.225E-01  0.265E-01
   4.655  0.122E+00  0.224E-01  0.257E-01  0.257E-01  0.224E-01  0.257E-01
   4.675  0.120E+00  0.224E-01  0.250E-01  0.250E-01  0.224E-01  0.250E-01
   4.695  0.118E+00  0.223E-01  0.243E-01  0.243E-01  0.223E-01  0.243E-01
   4.715  0.116E+00  0.223E-01  0.237E-01  0.237E-01  0.223E-01  0.237E-01
   4.735  0.114E+00  0.223E-01  0.231E-01  0.231E-01  0.223E-01  0.231E-01
   4.755  0.112E+00  0.223E-01  0.225E-01  0.225E-01  0.223E-01  0.225E-01
   4.775  0.111E+00  0.223E-01  0.219E-01  0.219E-01  0.223E-01  0.219E-01
   4.795  0.109E+00  0.224E-01  0.214E-01  0.214E-01  0.224E-01  0.214E-01
   4.815  0.108E+00  0.224E-01  0.210E-01  0.210E-01  0.224E-01  0.210E-01
   4.835  0.107E+00  0.225E-01  0.205E-01  0.205E-01  0.225E-01  0.205E-01
   4.855  0.106E+00  0.226E-01  0.201E-01  0.201E-01  0.226E-01  0.201E-01
   4.875  0.105E+00  0.227E-01  0.198E-01  0.198E-01  0.227E-01  0.198E-01
   4.895  0.104E+00  0.227E-01  0.194E-01  0.194E-01  0.227E-01  0.194E-01
   4.915  0.103E+00  0.229E-01  0.192E-01  0.192E-01  0.229E-01  0.192E-01
   4.935  0.103E+00  0.230E-01  0.189E-01  0.189E-01  0.230E-01  0.189E-01
   4.955  0.102E+00  0.231E-01  0.187E-01  0.187E-01  0.231E-01  0.187E-01
   4.975  0.102E+00  0.232E-01  0.185E-01  0.185E-01  0.232E-01  0.185E-01
   4.995  0.102E+00  0.234E-01  0.183E-01  0.183E-01  0.234E-01  0.183E-01
   5.015  0.102E+00  0.235E-01  0.182E-01  0.182E-01  0.235E-01  0.182E-01
   5.035  0.102E+00  0.237E-01  0.181E-01  0.181E-01  0.237E-01  0.181E-01
   5.055  0.102E+00  0.239E-01  0.181E-01  0.181E-01  0.239E-01  0.181E-01
   5.075  0.102E+00  0.241E-01  0.180E-01  0.180E-01  0.241E-01  0.180E-01
   5.095  0.103E+00  0.243E-01  0.180E-01  0.180E-01  0.243E-01  0.180E-01
   5.115  0.103E+00  0.245E-01  0.180E-01  0.180E-01  0.245E-01  0.180E-01
   5.135  0.104E+00  0.247E-01  0.181E-01  0.181E-01  0.247E-01  0.181E-01
   5.155  0.104E+00  0.249E-01  0.181E-01  0.181E-01  0.249E-01  0.181E-01
   5.175  0.105E+00  0.251E-01  0.182E-01  0.182E-01  0.251E-01  0.182E-01
   5.195  0.106E+00  0.253E-01  0.183E-01  0.183E-01  0.253E-01  0.183E-01
   5.215  0.106E+00  0.255E-01  0.184E-01  0.184E-01  0.255E-01  0.184E-01
   5.235  0.107E+00  0.257E-01  0.185E-01  0.185E-01  0.257E-01  0.185E-01
   5.255  0.108E+00  0.259E-01  0.186E-01  0.186E-01  0.259E-01  0.186E-01
   5.275  0.109E+00  0.261E-01  0.188E-01  0.188E-01  0.261E-01  0.188E-01
   5.295  0.109E+00  0.263E-01  0.189E-01  0.189E-01  0.263E-01  0.189E-01
   5.315  0.110E+00  0.265E-01  0.190E-01  0.190E-01  0.265E-01  0.190E-01
   5.335  0.111E+00  0.266E-01  0.191E-01  0.191E-01  0.266E-01  0.191E-01
   5.355  0.111E+00  0.268E-01  0.192E-01  0.192E-01  0.268E-01  0.192E-01
   5.375  0.112E+00  0.269E-01  0.193E-01  0.193E-01  0.269E-01  0.193E-01
   5.395  0.112E+00  0.270E-01  0.194E-01  0.194E-01  0.270E-01  0.194E-01
   5.415  0.113E+00  0.271E-01  0.194E-01  0.194E-01  0.271E-01  0.194E-01
   5.435  0.113E+00  0.272E-01  0.195E-01  0.195E-01  0.272E-01  0.195E-01
   5.455  0.113E+00  0.272E-01  0.195E-01  0.195E-01  0.272E-01  0.195E-01
   5.475  0.113E+00  0.273E-01  0.195E-01  0.195E-01  0.273E-01  0.195E-01
   5.495  0.113E+00  0.273E-01  0.196E-01  0.196E-01  0.273E-01  0.196E-01
   5.515  0.113E+00  0.273E-01  0.196E-01  0.196E-01  0.273E-01  0.196E-01
   5.535  0.113E+00  0.272E-01  0.195E-01  0.195E-01  0.272E-01  0.195E-01
   5.555  0.113E+00  0.272E-01  0.195E-01  0.195E-01  0.272E-01  0.195E-01
   5.575  0.113E+00  0.271E-01  0.195E-01  0.195E-01  0.271E-01  0.195E-01
   5.595  0.112E+00  0.270E-01  0.194E-01  0.194E-01  0.270E-01  0.194E-01
   5.615  0.112E+00  0.269E-01  0.194E-01  0.194E-01  0.269E-01  0.194E-01
   5.635  0.112E+00  0.268E-01  0.193E-01  0.193E-01  0.268E-01  0.193E-01
   5.655  0.111E+00  0.267E-01  0.193E-01  0.193E-01  0.267E-01  0.193E-01
   5.675  0.111E+00  0.265E-01  0.192E-01  0.192E-01  0.265E-01  0.192E-01
   5.695  0.110E+00  0.264E-01  0.191E-01  0.191E-01  0.264E-01  0.191E-01
   5.715  0.110E+00  0.262E-01  0.191E-01  0.191E-01  0.262E-01  0.191E-01
   5.735  0.109E+00  0.261E-01  0.190E-01  0.190E-01  0.261E-01  0.190E-01
   5.755  0.109E+00  0.259E-01  0.189E-01  0.189E-01  0.259E-01  0.189E-01
   5.775  0.108E+00  0.257E-01  0.189E-01  0.189E-01  0.257E-01  0.189E-01
   5.795  0.108E+00  0.255E-01  0.188E-01  0.188E-01  0.255E-01  0.188E-01
   5.815  0.107E+00  0.254E-01  0.188E-01  0.188E-01  0.254E-01  0.188E-01
   5.835  0.107E+00  0.252E-01  0.188E-01  0.188E-01  0.252E-01  0.188E-01
   5.855  0.106E+00  0.250E-01  0.187E-01  0.187E-01  0.250E-01  0.187E-01
   5.875  0.106E+00  0.248E-01  0.187E-01  0.187E-01  0.248E-01  0.187E-01
   5.895  0.106E+00  0.247E-01  0.187E-01  0.187E-01  0.247E-01  0.187E-01
   5.915  0.105E+00  0.245E-01  0.187E-01  0.187E-01  0.245E-01  0.187E-01
   5.935  0.105E+00  0.243E-01  0.187E-01  0.187E-01  0.243E-01  0.187E-01
   5.955  0.105E+00  0.242E-01  0.188E-01  0.188E-01  0.242E-01  0.188E-01
   5.975  0.104E+00  0.240E-01  0.188E-01  0.188E-01  0.240E-01  0.188E-01
   5.995  0.104E+00  0.238E-01  0.188E-01  0.188E-01  0.238E-01  0.188E-01
   6.015  0.104E+00  0.237E-01  0.189E-01  0.189E-01  0.237E-01  0.189E-01
   6.035  0.104E+00  0.235E-01  0.189E-01  0.189E-01  0.235E-01  0.189E-01
   6.055  0.104E+00  0.234E-01  0.190E-01  0.190E-01  0.234E-01  0.190E-01
   6.075  0.103E+00  0.232E-01  0.190E-01  0.190E-01  0.232E-01  0.190E-01
   6.095  0.103E+00  0.230E-01  0.191E-01  0.191E-01  0.230E-01  0.191E-01
   6.115  0.103E+00  0.229E-01  0.192E-01  0.192E-01  0.229E-01  0.192E-01
   6.135  0.103E+00  0.227E-01  0.192E-01  0.192E-01  0.227E-01  0.192E-01
   6.155  0.103E+00  0.226E-01  0.193E-01  0.193E-01  0.226E-01  0.193E-01
   6.175  0.103E+00  0.224E-01  0.194E-01  0.194E-01  0.224E-01  0.194E-01
   6.195  0.103E+00  0.223E-01  0.194E-01  0.194E-01  0.223E-01  0.194E-01
   6.215  0.103E+00  0.221E-01  0.195E-01  0.195E-01  0.221E-01  0.195E-01
   6.235  0.103E+00  0.220E-01  0.196E-01  0.196E-01  0.220E-01  0.196E-01
   6.255  0.103E+00  0.218E-01  0.196E-01  0.196E-01  0.218E-01  0.196E-01
   6.275  0.102E+00  0.217E-01  0.197E-01  0.197E-01  0.217E-01  0.197E-01
   6.295  0.102E+00  0.215E-01  0.197E-01  0.197E-01  0.215E-01  0.197E-01
   6.315  0.102E+00  0.214E-01  0.198E-01  0.198E-01  0.214E-01  0.198E-01
   6.335  0.102E+00  0.212E-01  0.198E-01  0.198E-01  0.212E-01  0.198E-01
   6.355  0.102E+00  0.211E-01  0.198E-01  0.198E-01  0.211E-01  0.198E-01
   6.375  0.101E+00  0.210E-01  0.198E-01  0.198E-01  0.210E-01  0.198E-01
   6.395  0.101E+00  0.208E-01  0.199E-01  0.199E-01  0.208E-01  0.199E-01
   6.415  0.101E+00  0.207E-01  0.199E-01  0.199E-01  0.207E-01  0.199E-01
   6.435  0.101E+00  0.206E-01  0.198E-01  0.198E-01  0.206E-01  0.198E-01
   6.455  0.100E+00  0.205E-01  0.198E-01  0.198E-01  0.205E-01  0.198E-01
   6.475  0.100E+00  0.204E-01  0.198E-01  0.198E-01  0.204E-01  0.198E-01
   6.495  0.999E-01  0.203E-01  0.198E-01  0.198E-01  0.203E-01  0.198E-01
   6.515  0.996E-01  0.202E-01  0.197E-01  0.197E-01  0.202E-01  0.197E-01
   6.535  0.993E-01  0.202E-01  0.197E-01  0.197E-01  0.202E-01  0.197E-01
   6.555  0.991E-01  0.201E-01  0.196E-01  0.196E-01  0.201E-01  0.196E-01
   6.575  0.988E-01  0.201E-01  0.196E-01  0.196E-01  0.201E-01  0.196E-01
   6.595  0.986E-01  0.200E-01  0.195E-01  0.195E-01  0.200E-01  0.195E-01
   6.615  0.984E-01  0.200E-01  0.194E-01  0.194E-01  0.200E-01  0.194E-01
   6.635  0.982E-01  0.200E-01  0.194E-01  0.194E-01  0.200E-01  0.194E-01
   6.655  0.981E-01  0.201E-01  0.193E-01  0.193E-01  0.201E-01  0.193E-01
   6.675  0.981E-01  0.201E-01  0.193E-01  0.193E-01  0.201E-01  0.193E-01
   6.695  0.980E-01  0.201E-01  0.193E-01  0.193E-01  0.201E-01  0.193E-01
   6.715  0.981E-01  0.202E-01  0.192E-01  0.192E-01  0.202E-01  0.192E-01
   6.735  0.982E-01  0.203E-01  0.192E-01  0.192E-01  0.203E-01  0.192E-01
   6.755  0.983E-01  0.204E-01  0.192E-01  0.192E-01  0.204E-01  0.192E-01
   6.775  0.985E-01  0.205E-01  0.192E-01  0.192E-01  0.205E-01  0.192E-01
   6.795  0.988E-01  0.206E-01  0.192E-01  0.192E-01  0.206E-01  0.192E-01
   6.815  0.991E-01  0.208E-01  0.192E-01  0.192E-01  0.208E-01  0.192E-01
   6.835  0.995E-01  0.209E-01  0.192E-01  0.192E-01  0.209E-01  0.192E-01
   6.855  0.999E-01  0.211E-01  0.192E-01  0.192E-01  0.211E-01  0.192E-01
   6.875  0.100E+00  0.213E-01  0.193E-01  0.193E-01  0.213E-01  0.193E-01
   6.895  0.101E+00  0.214E-01  0.193E-01  0.193E-01  0.214E-01  0.193E-01
   6.915  0.101E+00  0.216E-01  0.193E-01  0.193E-01  0.216E-01  0.193E-01
   6.935  0.102E+00  0.218E-01  0.194E-01  0.194E-01  0.218E-01  0.194E-01
   6.955  0.102E+00  0.220E-01  0.194E-01  0.194E-01  0.220E-01  0.194E-01
   6.975  0.103E+00  0.221E-01  0.194E-01  0.194E-01  0.221E-01  0.194E-01
   6.995  0.103E+00  0.223E-01  0.195E-01  0.195E-01  0.223E-01  0.195E-01
   7.015  0.103E+00  0.225E-01  0.195E-01  0.195E-01  0.225E-01  0.195E-01
   7.035  0.104E+00  0.226E-01  0.195E-01  0.195E-01  0.226E-01  0.195E-01
   7.055  0.104E+00  0.228E-01  0.195E-01  0.195E-01  0.228E-01  0.195E-01
   7.075  0.104E+00  0.229E-01  0.194E-01  0.194E-01  0.229E-01  0.194E-01
   7.095  0.104E+00  0.230E-01  0.194E-01  0.194E-01  0.230E-01  0.194E-01
   7.115  0.104E+00  0.231E-01  0.193E-01  0.193E-01  0.231E-01  0.193E-01
   7.135  0.104E+00  0.232E-01  0.193E-01  0.193E-01  0.232E-01  0.193E-01
   7.155  0.104E+00  0.233E-01  0.191E-01  0.191E-01  0.233E-01  0.191E-01
   7.175  0.104E+00  0.233E-01  0.190E-01  0.190E-01  0.233E-01  0.190E-01
   7.195  0.103E+00  0.234E-01  0.189E-01  0.189E-01  0.234E-01  0.189E-01
   7.215  0.103E+00  0.234E-01  0.187E-01  0.187E-01  0.234E-01  0.187E-01
   7.235  0.102E+00  0.234E-01  0.185E-01  0.185E-01  0.234E-01  0.185E-01
   7.255  0.101E+00  0.233E-01  0.183E-01  0.183E-01  0.233E-01  0.183E-01
   7.275  0.101E+00  0.233E-01  0.180E-01  0.180E-01  0.233E-01  0.180E-01
   7.295  0.998E-01  0.232E-01  0.178E-01  0.178E-01  0.232E-01  0.178E-01
   7.315  0.988E-01  0.231E-01  0.175E-01  0.175E-01  0.231E-01  0.175E-01
   7.335  0.977E-01  0.230E-01  0.172E-01  0.172E-01  0.230E-01  0.172E-01
   7.355  0.965E-01  0.229E-01  0.169E-01  0.169E-01  0.229E-01  0.169E-01
   7.375  0.953E-01  0.228E-01  0.166E-01  0.166E-01  0.228E-01  0.166E-01
   7.395  0.940E-01  0.226E-01  0.163E-01  0.163E-01  0.226E-01  0.163E-01
   7.415  0.927E-01  0.224E-01  0.159E-01  0.159E-01  0.224E-01  0.159E-01
   7.435  0.913E-01  0.223E-01  0.156E-01  0.156E-01  0.223E-01  0.156E-01
   7.455  0.899E-01  0.221E-01  0.152E-01  0.152E-01  0.221E-01  0.152E-01
   7.475  0.885E-01  0.219E-01  0.149E-01  0.149E-01  0.219E-01  0.149E-01
   7.495  0.870E-01  0.217E-01  0.145E-01  0.145E-01  0.217E-01  0.145E-01
   7.515  0.856E-01  0.215E-01  0.142E-01  0.142E-01  0.215E-01  0.142E-01
   7.535  0.841E-01  0.213E-01  0.139E-01  0.139E-01  0.213E-01  0.139E-01
   7.555  0.827E-01  0.210E-01  0.135E-01  0.135E-01  0.210E-01  0.135E-01
   7.575  0.812E-01  0.208E-01  0.132E-01  0.132E-01  0.208E-01  0.132E-01
   7.595  0.798E-01  0.206E-01  0.129E-01  0.129E-01  0.206E-01  0.129E-01
   7.615  0.784E-01  0.204E-01  0.126E-01  0.126E-01  0.204E-01  0.126E-01
   7.635  0.770E-01  0.201E-01  0.123E-01  0.123E-01  0.201E-01  0.123E-01
   7.655  0.757E-01  0.199E-01  0.120E-01  0.120E-01  0.199E-01  0.120E-01
   7.675  0.743E-01  0.196E-01  0.117E-01  0.117E-01  0.196E-01  0.117E-01
   7.695  0.730E-01  0.194E-01  0.114E-01  0.114E-01  0.194E-01  0.114E-01
   7.715  0.718E-01  0.192E-01  0.111E-01  0.111E-01  0.192E-01  0.111E-01
   7.735  0.705E-01  0.189E-01  0.109E-01  0.109E-01  0.189E-01  0.109E-01
   7.755  0.693E-01  0.187E-01  0.106E-01  0.106E-01  0.187E-01  0.106E-01
   7.775  0.681E-01  0.185E-01  0.104E-01  0.104E-01  0.185E-01  0.104E-01
   7.795  0.669E-01  0.182E-01  0.102E-01  0.102E-01  0.182E-01  0.102E-01
   7.815  0.658E-01  0.180E-01  0.993E-02  0.993E-02  0.180E-01  0.993E-02
   7.835  0.646E-01  0.178E-01  0.970E-02  0.970E-02  0.178E-01  0.970E-02
   7.855  0.635E-01  0.175E-01  0.948E-02  0.948E-02  0.175E-01  0.948E-02
   7.875  0.624E-01  0.173E-01  0.926E-02  0.926E-02  0.173E-01  0.926E-02
   7.895  0.613E-01  0.171E-01  0.905E-02  0.905E-02  0.171E-01  0.905E-02
   7.915  0.602E-01  0.168E-01  0.883E-02  0.883E-02  0.168E-01  0.883E-02
   7.935  0.591E-01  0.166E-01  0.862E-02  0.862E-02  0.166E-01  0.862E-02
   7.955  0.580E-01  0.164E-01  0.841E-02  0.841E-02  0.164E-01  0.841E-02
   7.975  0.570E-01  0.162E-01  0.820E-02  0.820E-02  0.162E-01  0.820E-02
   7.995  0.559E-01  0.160E-01  0.799E-02  0.799E-02  0.160E-01  0.799E-02
   8.015  0.548E-01  0.157E-01  0.779E-02  0.779E-02  0.157E-01  0.779E-02
   8.035  0.538E-01  0.155E-01  0.758E-02  0.758E-02  0.155E-01  0.758E-02
   8.055  0.527E-01  0.153E-01  0.738E-02  0.738E-02  0.153E-01  0.738E-02
   8.075  0.517E-01  0.151E-01  0.718E-02  0.718E-02  0.151E-01  0.718E-02
   8.095  0.507E-01  0.149E-01  0.699E-02  0.699E-02  0.149E-01  0.699E-02
   8.115  0.497E-01  0.146E-01  0.679E-02  0.679E-02  0.146E-01  0.679E-02
   8.135  0.487E-01  0.144E-01  0.661E-02  0.661E-02  0.144E-01  0.661E-02
   8.155  0.477E-01  0.142E-01  0.642E-02  0.642E-02  0.142E-01  0.642E-02
   8.175  0.467E-01  0.140E-01  0.625E-02  0.625E-02  0.140E-01  0.625E-02
   8.195  0.458E-01  0.138E-01  0.608E-02  0.608E-02  0.138E-01  0.608E-02
   8.215  0.449E-01  0.136E-01  0.592E-02  0.592E-02  0.136E-01  0.592E-02
   8.235  0.440E-01  0.134E-01  0.577E-02  0.577E-02  0.134E-01  0.577E-02
   8.255  0.432E-01  0.131E-01  0.563E-02  0.563E-02  0.131E-01  0.563E-02
   8.275  0.424E-01  0.129E-01  0.550E-02  0.550E-02  0.129E-01  0.550E-02
   8.295  0.416E-01  0.127E-01  0.538E-02  0.538E-02  0.127E-01  0.538E-02
   8.315  0.409E-01  0.125E-01  0.527E-02  0.527E-02  0.125E-01  0.527E-02
   8.335  0.402E-01  0.123E-01  0.518E-02  0.518E-02  0.123E-01  0.518E-02
   8.355  0.396E-01  0.121E-01  0.510E-02  0.510E-02  0.121E-01  0.510E-02
   8.375  0.390E-01  0.120E-01  0.504E-02  0.504E-02  0.120E-01  0.504E-02
   8.395  0.385E-01  0.118E-01  0.499E-02  0.499E-02  0.118E-01  0.499E-02
   8.415  0.381E-01  0.116E-01  0.496E-02  0.496E-02  0.116E-01  0.496E-02
   8.435  0.377E-01  0.114E-01  0.494E-02  0.494E-02  0.114E-01  0.494E-02
   8.455  0.374E-01  0.113E-01  0.494E-02  0.494E-02  0.113E-01  0.494E-02
   8.475  0.371E-01  0.111E-01  0.495E-02  0.495E-02  0.111E-01  0.495E-02
   8.495  0.369E-01  0.110E-01  0.498E-02  0.498E-02  0.110E-01  0.498E-02
   8.515  0.368E-01  0.108E-01  0.503E-02  0.503E-02  0.108E-01  0.503E-02
   8.535  0.367E-01  0.107E-01  0.509E-02  0.509E-02  0.107E-01  0.509E-02
   8.555  0.367E-01  0.106E-01  0.517E-02  0.517E-02  0.106E-01  0.517E-02
   8.575  0.367E-01  0.105E-01  0.526E-02  0.526E-02  0.105E-01  0.526E-02
   8.595  0.368E-01  0.104E-01  0.537E-02  0.537E-02  0.104E-01  0.537E-02
   8.615  0.370E-01  0.103E-01  0.549E-02  0.549E-02  0.103E-01  0.549E-02
   8.635  0.372E-01  0.102E-01  0.562E-02  0.562E-02  0.102E-01  0.562E-02
   8.655  0.375E-01  0.101E-01  0.577E-02  0.577E-02  0.101E-01  0.577E-02
   8.675  0.378E-01  0.999E-02  0.594E-02  0.594E-02  0.999E-02  0.594E-02
   8.695  0.381E-01  0.991E-02  0.611E-02  0.611E-02  0.991E-02  0.611E-02
   8.715  0.385E-01  0.982E-02  0.630E-02  0.630E-02  0.982E-02  0.630E-02
   8.735  0.390E-01  0.974E-02  0.650E-02  0.650E-02  0.974E-02  0.650E-02
   8.755  0.395E-01  0.967E-02  0.671E-02  0.671E-02  0.967E-02  0.671E-02
   8.775  0.400E-01  0.959E-02  0.693E-02  0.693E-02  0.959E-02  0.693E-02
   8.795  0.405E-01  0.951E-02  0.716E-02  0.716E-02  0.951E-02  0.716E-02
   8.815  0.411E-01  0.944E-02  0.740E-02  0.740E-02  0.944E-02  0.740E-02
   8.835  0.417E-01  0.936E-02  0.765E-02  0.765E-02  0.936E-02  0.765E-02
   8.855  0.423E-01  0.928E-02  0.792E-02  0.792E-02  0.928E-02  0.792E-02
   8.875  0.430E-01  0.921E-02  0.819E-02  0.819E-02  0.921E-02  0.819E-02
   8.895  0.437E-01  0.913E-02  0.847E-02  0.847E-02  0.913E-02  0.847E-02
   8.915  0.444E-01  0.905E-02  0.876E-02  0.876E-02  0.905E-02  0.876E-02
   8.935  0.451E-01  0.897E-02  0.906E-02  0.906E-02  0.897E-02  0.906E-02
   8.955  0.459E-01  0.889E-02  0.936E-02  0.936E-02  0.889E-02  0.936E-02
   8.975  0.467E-01  0.881E-02  0.968E-02  0.968E-02  0.881E-02  0.968E-02
   8.995  0.475E-01  0.873E-02  0.100E-01  0.100E-01  0.873E-02  0.100E-01
   9.015  0.483E-01  0.865E-02  0.103E-01  0.103E-01  0.865E-02  0.103E-01
   9.035  0.492E-01  0.857E-02  0.107E-01  0.107E-01  0.857E-02  0.107E-01
   9.055  0.501E-01  0.849E-02  0.110E-01  0.110E-01  0.849E-02  0.110E-01
   9.075  0.510E-01  0.841E-02  0.114E-01  0.114E-01  0.841E-02  0.114E-01
   9.095  0.520E-01  0.834E-02  0.118E-01  0.118E-01  0.834E-02  0.118E-01
   9.115  0.529E-01  0.826E-02  0.121E-01  0.121E-01  0.826E-02  0.121E-01
   9.135  0.539E-01  0.819E-02  0.125E-01  0.125E-01  0.819E-02  0.125E-01
   9.155  0.549E-01  0.812E-02  0.129E-01  0.129E-01  0.812E-02  0.129E-01
   9.175  0.560E-01  0.805E-02  0.133E-01  0.133E-01  0.805E-02  0.133E-01
   9.195  0.570E-01  0.798E-02  0.137E-01  0.137E-01  0.798E-02  0.137E-01
   9.215  0.581E-01  0.792E-02  0.141E-01  0.141E-01  0.792E-02  0.141E-01
   9.235  0.592E-01  0.785E-02  0.145E-01  0.145E-01  0.785E-02  0.145E-01
   9.255  0.602E-01  0.779E-02  0.149E-01  0.149E-01  0.779E-02  0.149E-01
   9.275  0.613E-01  0.773E-02  0.153E-01  0.153E-01  0.773E-02  0.153E-01
   9.295  0.624E-01  0.767E-02  0.157E-01  0.157E-01  0.767E-02  0.157E-01
   9.315  0.635E-01  0.761E-02  0.161E-01  0.161E-01  0.761E-02  0.161E-01
   9.335  0.646E-01  0.755E-02  0.165E-01  0.165E-01  0.755E-02  0.165E-01
   9.355  0.657E-01  0.748E-02  0.169E-01  0.169E-01  0.748E-02  0.169E-01
   9.375  0.667E-01  0.742E-02  0.173E-01  0.173E-01  0.742E-02  0.173E-01
   9.395  0.678E-01  0.736E-02  0.177E-01  0.177E-01  0.736E-02  0.177E-01
   9.415  0.688E-01  0.729E-02  0.181E-01  0.181E-01  0.729E-02  0.181E-01
   9.435  0.698E-01  0.722E-02  0.185E-01  0.185E-01  0.722E-02  0.185E-01
   9.455  0.709E-01  0.716E-02  0.188E-01  0.188E-01  0.716E-02  0.188E-01
   9.475  0.718E-01  0.709E-02  0.192E-01  0.192E-01  0.709E-02  0.192E-01
   9.495  0.728E-01  0.702E-02  0.196E-01  0.196E-01  0.702E-02  0.196E-01
   9.515  0.738E-01  0.694E-02  0.200E-01  0.200E-01  0.694E-02  0.200E-01
   9.535  0.747E-01  0.687E-02  0.203E-01  0.203E-01  0.687E-02  0.203E-01
   9.555  0.757E-01  0.680E-02  0.207E-01  0.207E-01  0.680E-02  0.207E-01
   9.575  0.766E-01  0.673E-02  0.210E-01  0.210E-01  0.673E-02  0.210E-01
   9.595  0.775E-01  0.666E-02  0.214E-01  0.214E-01  0.666E-02  0.214E-01
   9.615  0.784E-01  0.659E-02  0.218E-01  0.218E-01  0.659E-02  0.218E-01
   9.635  0.794E-01  0.653E-02  0.221E-01  0.221E-01  0.653E-02  0.221E-01
   9.655  0.803E-01  0.646E-02  0.224E-01  0.224E-01  0.646E-02  0.224E-01
   9.675  0.812E-01  0.640E-02  0.228E-01  0.228E-01  0.640E-02  0.228E-01
   9.695  0.821E-01  0.635E-02  0.231E-01  0.231E-01  0.635E-02  0.231E-01
   9.715  0.831E-01  0.630E-02  0.235E-01  0.235E-01  0.630E-02  0.235E-01
   9.735  0.841E-01  0.626E-02  0.238E-01  0.238E-01  0.626E-02  0.238E-01
   9.755  0.850E-01  0.622E-02  0.242E-01  0.242E-01  0.622E-02  0.242E-01
   9.775  0.860E-01  0.619E-02  0.246E-01  0.246E-01  0.619E-02  0.246E-01
   9.795  0.870E-01  0.616E-02  0.249E-01  0.249E-01  0.616E-02  0.249E-01
   9.815  0.881E-01  0.614E-02  0.253E-01  0.253E-01  0.614E-02  0.253E-01
   9.835  0.891E-01  0.613E-02  0.256E-01  0.256E-01  0.613E-02  0.256E-01
   9.855  0.902E-01  0.613E-02  0.260E-01  0.260E-01  0.613E-02  0.260E-01
   9.875  0.912E-01  0.612E-02  0.263E-01  0.263E-01  0.612E-02  0.263E-01
   9.895  0.923E-01  0.613E-02  0.267E-01  0.267E-01  0.613E-02  0.267E-01
   9.915  0.934E-01  0.614E-02  0.270E-01  0.270E-01  0.614E-02  0.270E-01
   9.935  0.944E-01  0.615E-02  0.274E-01  0.274E-01  0.615E-02  0.274E-01
   9.955  0.955E-01  0.617E-02  0.277E-01  0.277E-01  0.617E-02  0.277E-01
   9.975  0.966E-01  0.619E-02  0.281E-01  0.281E-01  0.619E-02  0.281E-01
   9.995  0.976E-01  0.621E-02  0.284E-01  0.284E-01  0.621E-02  0.284E-01
  10.015  0.986E-01  0.624E-02  0.287E-01  0.287E-01  0.624E-02  0.287E-01
  10.035  0.996E-01  0.626E-02  0.290E-01  0.290E-01  0.626E-02  0.290E-01
  10.055  0.101E+00  0.628E-02  0.293E-01  0.293E-01  0.628E-02  0.293E-01
  10.075  0.101E+00  0.630E-02  0.296E-01  0.296E-01  0.630E-02  0.296E-01
  10.095  0.102E+00  0.632E-02  0.299E-01  0.299E-01  0.632E-02  0.299E-01
  10.115  0.103E+00  0.634E-02  0.302E-01  0.302E-01  0.634E-02  0.302E-01
  10.135  0.104E+00  0.635E-02  0.304E-01  0.304E-01  0.635E-02  0.304E-01
  10.155  0.105E+00  0.636E-02  0.306E-01  0.306E-01  0.636E-02  0.306E-01
  10.175  0.105E+00  0.637E-02  0.309E-01  0.309E-01  0.637E-02  0.309E-01
  10.195  0.106E+00  0.637E-02  0.311E-01  0.311E-01  0.637E-02  0.311E-01
  10.215  0.107E+00  0.637E-02  0.313E-01  0.313E-01  0.637E-02  0.313E-01
  10.235  0.107E+00  0.637E-02  0.314E-01  0.314E-01  0.637E-02  0.314E-01
  10.255  0.108E+00  0.637E-02  0.316E-01  0.316E-01  0.637E-02  0.316E-01
  10.275  0.108E+00  0.637E-02  0.318E-01  0.318E-01  0.637E-02  0.318E-01
  10.295  0.109E+00  0.637E-02  0.319E-01  0.319E-01  0.637E-02  0.319E-01
  10.315  0.109E+00  0.638E-02  0.321E-01  0.321E-01  0.638E-02  0.321E-01
  10.335  0.109E+00  0.638E-02  0.322E-01  0.322E-01  0.638E-02  0.322E-01
  10.355  0.110E+00  0.640E-02  0.324E-01  0.324E-01  0.640E-02  0.324E-01
  10.375  0.110E+00  0.642E-02  0.325E-01  0.325E-01  0.642E-02  0.325E-01
  10.395  0.111E+00  0.645E-02  0.326E-01  0.326E-01  0.645E-02  0.326E-01
  10.415  0.111E+00  0.649E-02  0.328E-01  0.328E-01  0.649E-02  0.328E-01
  10.435  0.112E+00  0.654E-02  0.329E-01  0.329E-01  0.654E-02  0.329E-01
  10.455  0.112E+00  0.660E-02  0.331E-01  0.331E-01  0.660E-02  0.331E-01
  10.475  0.113E+00  0.668E-02  0.333E-01  0.333E-01  0.668E-02  0.333E-01
  10.495  0.114E+00  0.677E-02  0.334E-01  0.334E-01  0.677E-02  0.334E-01
  10.515  0.115E+00  0.688E-02  0.336E-01  0.336E-01  0.688E-02  0.336E-01
  10.535  0.115E+00  0.700E-02  0.338E-01  0.338E-01  0.700E-02  0.338E-01
  10.555  0.116E+00  0.714E-02  0.340E-01  0.340E-01  0.714E-02  0.340E-01
  10.575  0.117E+00  0.730E-02  0.343E-01  0.343E-01  0.730E-02  0.343E-01
  10.595  0.119E+00  0.747E-02  0.345E-01  0.345E-01  0.747E-02  0.345E-01
  10.615  0.120E+00  0.766E-02  0.348E-01  0.348E-01  0.766E-02  0.348E-01
  10.635  0.121E+00  0.786E-02  0.350E-01  0.350E-01  0.786E-02  0.350E-01
  10.655  0.122E+00  0.808E-02  0.353E-01  0.353E-01  0.808E-02  0.353E-01
  10.675  0.123E+00  0.831E-02  0.356E-01  0.356E-01  0.831E-02  0.356E-01
  10.695  0.125E+00  0.854E-02  0.359E-01  0.359E-01  0.854E-02  0.359E-01
  10.715  0.126E+00  0.879E-02  0.362E-01  0.362E-01  0.879E-02  0.362E-01
  10.735  0.128E+00  0.904E-02  0.365E-01  0.365E-01  0.904E-02  0.365E-01
  10.755  0.129E+00  0.929E-02  0.368E-01  0.368E-01  0.929E-02  0.368E-01
  10.775  0.130E+00  0.954E-02  0.371E-01  0.371E-01  0.954E-02  0.371E-01
  10.795  0.132E+00  0.980E-02  0.374E-01  0.374E-01  0.980E-02  0.374E-01
  10.815  0.133E+00  0.100E-01  0.377E-01  0.377E-01  0.100E-01  0.377E-01
  10.835  0.135E+00  0.103E-01  0.380E-01  0.380E-01  0.103E-01  0.380E-01
  10.855  0.136E+00  0.105E-01  0.383E-01  0.383E-01  0.105E-01  0.383E-01
  10.875  0.137E+00  0.108E-01  0.385E-01  0.385E-01  0.108E-01  0.385E-01
  10.895  0.138E+00  0.110E-01  0.387E-01  0.387E-01  0.110E-01  0.387E-01
  10.915  0.139E+00  0.112E-01  0.389E-01  0.389E-01  0.112E-01  0.389E-01
  10.935  0.140E+00  0.114E-01  0.391E-01  0.391E-01  0.114E-01  0.391E-01
  10.955  0.141E+00  0.115E-01  0.393E-01  0.393E-01  0.115E-01  0.393E-01
  10.975  0.142E+00  0.117E-01  0.394E-01  0.394E-01  0.117E-01  0.394E-01
  10.995  0.142E+00  0.119E-01  0.395E-01  0.395E-01  0.119E-01  0.395E-01
  11.015  0.143E+00  0.120E-01  0.396E-01  0.396E-01  0.120E-01  0.396E-01
  11.035  0.143E+00  0.121E-01  0.396E-01  0.396E-01  0.121E-01  0.396E-01
  11.055  0.143E+00  0.122E-01  0.396E-01  0.396E-01  0.122E-01  0.396E-01
  11.075  0.143E+00  0.123E-01  0.396E-01  0.396E-01  0.123E-01  0.396E-01
  11.095  0.143E+00  0.124E-01  0.396E-01  0.396E-01  0.124E-01  0.396E-01
  11.115  0.143E+00  0.125E-01  0.395E-01  0.395E-01  0.125E-01  0.395E-01
  11.135  0.143E+00  0.125E-01  0.394E-01  0.394E-01  0.125E-01  0.394E-01
  11.155  0.143E+00  0.126E-01  0.393E-01  0.393E-01  0.126E-01  0.393E-01
  11.175  0.143E+00  0.126E-01  0.392E-01  0.392E-01  0.126E-01  0.392E-01
  11.195  0.142E+00  0.127E-01  0.390E-01  0.390E-01  0.127E-01  0.390E-01
  11.215  0.142E+00  0.128E-01  0.389E-01  0.389E-01  0.128E-01  0.389E-01
  11.235  0.142E+00  0.128E-01  0.387E-01  0.387E-01  0.128E-01  0.387E-01
  11.255  0.141E+00  0.129E-01  0.385E-01  0.385E-01  0.129E-01  0.385E-01
  11.275  0.141E+00  0.130E-01  0.383E-01  0.383E-01  0.130E-01  0.383E-01
  11.295  0.141E+00  0.131E-01  0.381E-01  0.381E-01  0.131E-01  0.381E-01
  11.315  0.140E+00  0.132E-01  0.380E-01  0.380E-01  0.132E-01  0.380E-01
  11.335  0.140E+00  0.134E-01  0.378E-01  0.378E-01  0.134E-01  0.378E-01
  11.355  0.140E+00  0.135E-01  0.376E-01  0.376E-01  0.135E-01  0.376E-01
  11.375  0.140E+00  0.137E-01  0.375E-01  0.375E-01  0.137E-01  0.375E-01
  11.395  0.140E+00  0.139E-01  0.373E-01  0.373E-01  0.139E-01  0.373E-01
  11.415  0.140E+00  0.142E-01  0.372E-01  0.372E-01  0.142E-01  0.372E-01
  11.435  0.140E+00  0.144E-01  0.371E-01  0.371E-01  0.144E-01  0.371E-01
  11.455  0.141E+00  0.147E-01  0.371E-01  0.371E-01  0.147E-01  0.371E-01
  11.475  0.141E+00  0.151E-01  0.370E-01  0.370E-01  0.151E-01  0.370E-01
  11.495  0.142E+00  0.154E-01  0.370E-01  0.370E-01  0.154E-01  0.370E-01
  11.515  0.143E+00  0.158E-01  0.370E-01  0.370E-01  0.158E-01  0.370E-01
  11.535  0.144E+00  0.162E-01  0.370E-01  0.370E-01  0.162E-01  0.370E-01
  11.555  0.145E+00  0.167E-01  0.371E-01  0.371E-01  0.167E-01  0.371E-01
  11.575  0.146E+00  0.172E-01  0.372E-01  0.372E-01  0.172E-01  0.372E-01
  11.595  0.147E+00  0.177E-01  0.373E-01  0.373E-01  0.177E-01  0.373E-01
  11.615  0.149E+00  0.182E-01  0.374E-01  0.374E-01  0.182E-01  0.374E-01
  11.635  0.150E+00  0.187E-01  0.376E-01  0.376E-01  0.187E-01  0.376E-01
  11.655  0.152E+00  0.193E-01  0.377E-01  0.377E-01  0.193E-01  0.377E-01
  11.675  0.153E+00  0.198E-01  0.379E-01  0.379E-01  0.198E-01  0.379E-01
  11.695  0.155E+00  0.204E-01  0.381E-01  0.381E-01  0.204E-01  0.381E-01
  11.715  0.157E+00  0.210E-01  0.383E-01  0.383E-01  0.210E-01  0.383E-01
  11.735  0.158E+00  0.215E-01  0.385E-01  0.385E-01  0.215E-01  0.385E-01
  11.755  0.160E+00  0.221E-01  0.386E-01  0.386E-01  0.221E-01  0.386E-01
  11.775  0.162E+00  0.227E-01  0.388E-01  0.388E-01  0.227E-01  0.388E-01
  11.795  0.163E+00  0.232E-01  0.390E-01  0.390E-01  0.232E-01  0.390E-01
  11.815  0.165E+00  0.237E-01  0.391E-01  0.391E-01  0.237E-01  0.391E-01
  11.835  0.166E+00  0.243E-01  0.393E-01  0.393E-01  0.243E-01  0.393E-01
  11.855  0.168E+00  0.248E-01  0.394E-01  0.394E-01  0.248E-01  0.394E-01
  11.875  0.169E+00  0.252E-01  0.395E-01  0.395E-01  0.252E-01  0.395E-01
  11.895  0.170E+00  0.257E-01  0.395E-01  0.395E-01  0.257E-01  0.395E-01
  11.915  0.171E+00  0.261E-01  0.395E-01  0.395E-01  0.261E-01  0.395E-01
  11.935  0.172E+00  0.265E-01  0.395E-01  0.395E-01  0.265E-01  0.395E-01
  11.955  0.172E+00  0.268E-01  0.395E-01  0.395E-01  0.268E-01  0.395E-01
  11.975  0.173E+00  0.272E-01  0.394E-01  0.394E-01  0.272E-01  0.394E-01
  11.995  0.173E+00  0.275E-01  0.393E-01  0.393E-01  0.275E-01  0.393E-01
  12.015  0.173E+00  0.277E-01  0.392E-01  0.392E-01  0.277E-01  0.392E-01
  12.035  0.173E+00  0.280E-01  0.390E-01  0.390E-01  0.280E-01  0.390E-01
  12.055  0.173E+00  0.282E-01  0.388E-01  0.388E-01  0.282E-01  0.388E-01
  12.075  0.173E+00  0.284E-01  0.386E-01  0.386E-01  0.284E-01  0.386E-01
  12.095  0.172E+00  0.286E-01  0.384E-01  0.384E-01  0.286E-01  0.384E-01
  12.115  0.172E+00  0.288E-01  0.382E-01  0.382E-01  0.288E-01  0.382E-01
  12.135  0.172E+00  0.290E-01  0.379E-01  0.379E-01  0.290E-01  0.379E-01
  12.155  0.171E+00  0.292E-01  0.376E-01  0.376E-01  0.292E-01  0.376E-01
  12.175  0.171E+00  0.294E-01  0.374E-01  0.374E-01  0.294E-01  0.374E-01
  12.195  0.171E+00  0.296E-01  0.371E-01  0.371E-01  0.296E-01  0.371E-01
  12.215  0.170E+00  0.298E-01  0.369E-01  0.369E-01  0.298E-01  0.369E-01
  12.235  0.170E+00  0.300E-01  0.366E-01  0.366E-01  0.300E-01  0.366E-01
  12.255  0.170E+00  0.303E-01  0.364E-01  0.364E-01  0.303E-01  0.364E-01
  12.275  0.170E+00  0.306E-01  0.361E-01  0.361E-01  0.306E-01  0.361E-01
  12.295  0.170E+00  0.309E-01  0.359E-01  0.359E-01  0.309E-01  0.359E-01
  12.315  0.170E+00  0.313E-01  0.357E-01  0.357E-01  0.313E-01  0.357E-01
  12.335  0.170E+00  0.316E-01  0.355E-01  0.355E-01  0.316E-01  0.355E-01
  12.355  0.170E+00  0.321E-01  0.354E-01  0.354E-01  0.321E-01  0.354E-01
  12.375  0.171E+00  0.325E-01  0.352E-01  0.352E-01  0.325E-01  0.352E-01
  12.395  0.171E+00  0.331E-01  0.351E-01  0.351E-01  0.331E-01  0.351E-01
  12.415  0.172E+00  0.336E-01  0.350E-01  0.350E-01  0.336E-01  0.350E-01
  12.435  0.173E+00  0.342E-01  0.349E-01  0.349E-01  0.342E-01  0.349E-01
  12.455  0.174E+00  0.348E-01  0.348E-01  0.348E-01  0.348E-01  0.348E-01
  12.475  0.175E+00  0.355E-01  0.348E-01  0.348E-01  0.355E-01  0.348E-01
  12.495  0.176E+00  0.362E-01  0.347E-01  0.347E-01  0.362E-01  0.347E-01
  12.515  0.178E+00  0.369E-01  0.347E-01  0.347E-01  0.369E-01  0.347E-01
  12.535  0.179E+00  0.376E-01  0.346E-01  0.346E-01  0.376E-01  0.346E-01
  12.555  0.180E+00  0.384E-01  0.346E-01  0.346E-01  0.384E-01  0.346E-01
  12.575  0.182E+00  0.391E-01  0.345E-01  0.345E-01  0.391E-01  0.345E-01
  12.595  0.183E+00  0.399E-01  0.345E-01  0.345E-01  0.399E-01  0.345E-01
  12.615  0.184E+00  0.406E-01  0.344E-01  0.344E-01  0.406E-01  0.344E-01
  12.635  0.186E+00  0.413E-01  0.343E-01  0.343E-01  0.413E-01  0.343E-01
  12.655  0.187E+00  0.420E-01  0.342E-01  0.342E-01  0.420E-01  0.342E-01
  12.675  0.188E+00  0.427E-01  0.341E-01  0.341E-01  0.427E-01  0.341E-01
  12.695  0.189E+00  0.434E-01  0.339E-01  0.339E-01  0.434E-01  0.339E-01
  12.715  0.189E+00  0.440E-01  0.338E-01  0.338E-01  0.440E-01  0.338E-01
  12.735  0.190E+00  0.445E-01  0.336E-01  0.336E-01  0.445E-01  0.336E-01
  12.755  0.190E+00  0.450E-01  0.334E-01  0.334E-01  0.450E-01  0.334E-01
  12.775  0.190E+00  0.454E-01  0.331E-01  0.331E-01  0.454E-01  0.331E-01
  12.795  0.190E+00  0.458E-01  0.329E-01  0.329E-01  0.458E-01  0.329E-01
  12.815  0.190E+00  0.461E-01  0.326E-01  0.326E-01  0.461E-01  0.326E-01
  12.835  0.190E+00  0.463E-01  0.323E-01  0.323E-01  0.463E-01  0.323E-01
  12.855  0.189E+00  0.465E-01  0.320E-01  0.320E-01  0.465E-01  0.320E-01
  12.875  0.188E+00  0.465E-01  0.316E-01  0.316E-01  0.465E-01  0.316E-01
  12.895  0.187E+00  0.465E-01  0.313E-01  0.313E-01  0.465E-01  0.313E-01
  12.915  0.186E+00  0.464E-01  0.309E-01  0.309E-01  0.464E-01  0.309E-01
  12.935  0.184E+00  0.463E-01  0.305E-01  0.305E-01  0.463E-01  0.305E-01
  12.955  0.183E+00  0.460E-01  0.301E-01  0.301E-01  0.460E-01  0.301E-01
  12.975  0.181E+00  0.457E-01  0.298E-01  0.298E-01  0.457E-01  0.298E-01
  12.995  0.179E+00  0.454E-01  0.294E-01  0.294E-01  0.454E-01  0.294E-01
  13.015  0.177E+00  0.450E-01  0.290E-01  0.290E-01  0.450E-01  0.290E-01
  13.035  0.175E+00  0.445E-01  0.286E-01  0.286E-01  0.445E-01  0.286E-01
  13.055  0.173E+00  0.440E-01  0.282E-01  0.282E-01  0.440E-01  0.282E-01
  13.075  0.170E+00  0.435E-01  0.278E-01  0.278E-01  0.435E-01  0.278E-01
  13.095  0.168E+00  0.429E-01  0.275E-01  0.275E-01  0.429E-01  0.275E-01
  13.115  0.166E+00  0.423E-01  0.271E-01  0.271E-01  0.423E-01  0.271E-01
  13.135  0.164E+00  0.417E-01  0.268E-01  0.268E-01  0.417E-01  0.268E-01
  13.155  0.162E+00  0.411E-01  0.265E-01  0.265E-01  0.411E-01  0.265E-01
  13.175  0.159E+00  0.404E-01  0.262E-01  0.262E-01  0.404E-01  0.262E-01
  13.195  0.157E+00  0.398E-01  0.259E-01  0.259E-01  0.398E-01  0.259E-01
  13.215  0.155E+00  0.392E-01  0.256E-01  0.256E-01  0.392E-01  0.256E-01
  13.235  0.153E+00  0.386E-01  0.253E-01  0.253E-01  0.386E-01  0.253E-01
  13.255  0.151E+00  0.380E-01  0.251E-01  0.251E-01  0.380E-01  0.251E-01
  13.275  0.149E+00  0.374E-01  0.248E-01  0.248E-01  0.374E-01  0.248E-01
  13.295  0.147E+00  0.368E-01  0.245E-01  0.245E-01  0.368E-01  0.245E-01
  13.315  0.145E+00  0.362E-01  0.243E-01  0.243E-01  0.362E-01  0.243E-01
  13.335  0.144E+00  0.357E-01  0.240E-01  0.240E-01  0.357E-01  0.240E-01
  13.355  0.142E+00  0.352E-01  0.238E-01  0.238E-01  0.352E-01  0.238E-01
  13.375  0.140E+00  0.347E-01  0.235E-01  0.235E-01  0.347E-01  0.235E-01
  13.395  0.138E+00  0.342E-01  0.233E-01  0.233E-01  0.342E-01  0.233E-01
  13.415  0.137E+00  0.338E-01  0.230E-01  0.230E-01  0.338E-01  0.230E-01
  13.435  0.135E+00  0.333E-01  0.227E-01  0.227E-01  0.333E-01  0.227E-01
  13.455  0.133E+00  0.329E-01  0.224E-01  0.224E-01  0.329E-01  0.224E-01
  13.475  0.131E+00  0.325E-01  0.221E-01  0.221E-01  0.325E-01  0.221E-01
  13.495  0.130E+00  0.321E-01  0.218E-01  0.218E-01  0.321E-01  0.218E-01
  13.515  0.128E+00  0.317E-01  0.215E-01  0.215E-01  0.317E-01  0.215E-01
  13.535  0.126E+00  0.313E-01  0.211E-01  0.211E-01  0.313E-01  0.211E-01
  13.555  0.124E+00  0.310E-01  0.207E-01  0.207E-01  0.310E-01  0.207E-01
  13.575  0.122E+00  0.306E-01  0.204E-01  0.204E-01  0.306E-01  0.204E-01
  13.595  0.121E+00  0.303E-01  0.200E-01  0.200E-01  0.303E-01  0.200E-01
  13.615  0.119E+00  0.299E-01  0.196E-01  0.196E-01  0.299E-01  0.196E-01
  13.635  0.117E+00  0.296E-01  0.192E-01  0.192E-01  0.296E-01  0.192E-01
  13.655  0.115E+00  0.293E-01  0.188E-01  0.188E-01  0.293E-01  0.188E-01
  13.675  0.113E+00  0.290E-01  0.184E-01  0.184E-01  0.290E-01  0.184E-01
  13.695  0.112E+00  0.287E-01  0.180E-01  0.180E-01  0.287E-01  0.180E-01
  13.715  0.110E+00  0.284E-01  0.176E-01  0.176E-01  0.284E-01  0.176E-01
  13.735  0.108E+00  0.282E-01  0.172E-01  0.172E-01  0.282E-01  0.172E-01
  13.755  0.107E+00  0.280E-01  0.169E-01  0.169E-01  0.280E-01  0.169E-01
  13.775  0.105E+00  0.277E-01  0.165E-01  0.165E-01  0.277E-01  0.165E-01
  13.795  0.104E+00  0.276E-01  0.161E-01  0.161E-01  0.276E-01  0.161E-01
  13.815  0.102E+00  0.274E-01  0.158E-01  0.158E-01  0.274E-01  0.158E-01
  13.835  0.101E+00  0.273E-01  0.155E-01  0.155E-01  0.273E-01  0.155E-01
  13.855  0.999E-01  0.272E-01  0.152E-01  0.152E-01  0.272E-01  0.152E-01
  13.875  0.989E-01  0.271E-01  0.149E-01  0.149E-01  0.271E-01  0.149E-01
  13.895  0.980E-01  0.271E-01  0.146E-01  0.146E-01  0.271E-01  0.146E-01
  13.915  0.973E-01  0.270E-01  0.144E-01  0.144E-01  0.270E-01  0.144E-01
  13.935  0.967E-01  0.271E-01  0.142E-01  0.142E-01  0.271E-01  0.142E-01
  13.955  0.963E-01  0.271E-01  0.140E-01  0.140E-01  0.271E-01  0.140E-01
  13.975  0.960E-01  0.272E-01  0.138E-01  0.138E-01  0.272E-01  0.138E-01
  13.995  0.958E-01  0.274E-01  0.137E-01  0.137E-01  0.274E-01  0.137E-01
  14.015  0.958E-01  0.275E-01  0.136E-01  0.136E-01  0.275E-01  0.136E-01
  14.035  0.959E-01  0.277E-01  0.135E-01  0.135E-01  0.277E-01  0.135E-01
  14.055  0.961E-01  0.279E-01  0.134E-01  0.134E-01  0.279E-01  0.134E-01
  14.075  0.965E-01  0.282E-01  0.134E-01  0.134E-01  0.282E-01  0.134E-01
  14.095  0.969E-01  0.284E-01  0.134E-01  0.134E-01  0.284E-01  0.134E-01
  14.115  0.975E-01  0.287E-01  0.134E-01  0.134E-01  0.287E-01  0.134E-01
  14.135  0.982E-01  0.290E-01  0.134E-01  0.134E-01  0.290E-01  0.134E-01
  14.155  0.989E-01  0.293E-01  0.134E-01  0.134E-01  0.293E-01  0.134E-01
  14.175  0.997E-01  0.296E-01  0.135E-01  0.135E-01  0.296E-01  0.135E-01
  14.195  0.101E+00  0.299E-01  0.136E-01  0.136E-01  0.299E-01  0.136E-01
  14.215  0.101E+00  0.302E-01  0.137E-01  0.137E-01  0.302E-01  0.137E-01
  14.235  0.102E+00  0.304E-01  0.138E-01  0.138E-01  0.304E-01  0.138E-01
  14.255  0.103E+00  0.307E-01  0.139E-01  0.139E-01  0.307E-01  0.139E-01
  14.275  0.104E+00  0.309E-01  0.141E-01  0.141E-01  0.309E-01  0.141E-01
  14.295  0.105E+00  0.311E-01  0.142E-01  0.142E-01  0.311E-01  0.142E-01
  14.315  0.106E+00  0.313E-01  0.144E-01  0.144E-01  0.313E-01  0.144E-01
  14.335  0.107E+00  0.315E-01  0.146E-01  0.146E-01  0.315E-01  0.146E-01
  14.355  0.107E+00  0.316E-01  0.147E-01  0.147E-01  0.316E-01  0.147E-01
  14.375  0.108E+00  0.316E-01  0.149E-01  0.149E-01  0.316E-01  0.149E-01
  14.395  0.109E+00  0.317E-01  0.151E-01  0.151E-01  0.317E-01  0.151E-01
  14.415  0.109E+00  0.317E-01  0.153E-01  0.153E-01  0.317E-01  0.153E-01
  14.435  0.110E+00  0.317E-01  0.155E-01  0.155E-01  0.317E-01  0.155E-01
  14.455  0.110E+00  0.316E-01  0.157E-01  0.157E-01  0.316E-01  0.157E-01
  14.475  0.111E+00  0.315E-01  0.159E-01  0.159E-01  0.315E-01  0.159E-01
  14.495  0.111E+00  0.314E-01  0.160E-01  0.160E-01  0.314E-01  0.160E-01
  14.515  0.111E+00  0.312E-01  0.162E-01  0.162E-01  0.312E-01  0.162E-01
  14.535  0.111E+00  0.311E-01  0.164E-01  0.164E-01  0.311E-01  0.164E-01
  14.555  0.111E+00  0.309E-01  0.166E-01  0.166E-01  0.309E-01  0.166E-01
  14.575  0.112E+00  0.307E-01  0.168E-01  0.168E-01  0.307E-01  0.168E-01
  14.595  0.112E+00  0.304E-01  0.169E-01  0.169E-01  0.304E-01  0.169E-01
  14.615  0.112E+00  0.302E-01  0.171E-01  0.171E-01  0.302E-01  0.171E-01
  14.635  0.112E+00  0.300E-01  0.173E-01  0.173E-01  0.300E-01  0.173E-01
  14.655  0.112E+00  0.298E-01  0.174E-01  0.174E-01  0.298E-01  0.174E-01
  14.675  0.112E+00  0.296E-01  0.176E-01  0.176E-01  0.296E-01  0.176E-01
  14.695  0.112E+00  0.294E-01  0.177E-01  0.177E-01  0.294E-01  0.177E-01
  14.715  0.112E+00  0.292E-01  0.179E-01  0.179E-01  0.292E-01  0.179E-01
  14.735  0.112E+00  0.290E-01  0.181E-01  0.181E-01  0.290E-01  0.181E-01
  14.755  0.112E+00  0.288E-01  0.182E-01  0.182E-01  0.288E-01  0.182E-01
  14.775  0.113E+00  0.287E-01  0.184E-01  0.184E-01  0.287E-01  0.184E-01
  14.795  0.113E+00  0.286E-01  0.186E-01  0.186E-01  0.286E-01  0.186E-01
  14.815  0.113E+00  0.285E-01  0.188E-01  0.188E-01  0.285E-01  0.188E-01
  14.835  0.114E+00  0.284E-01  0.190E-01  0.190E-01  0.284E-01  0.190E-01
  14.855  0.114E+00  0.283E-01  0.192E-01  0.192E-01  0.283E-01  0.192E-01
  14.875  0.115E+00  0.283E-01  0.194E-01  0.194E-01  0.283E-01  0.194E-01
  14.895  0.115E+00  0.283E-01  0.196E-01  0.196E-01  0.283E-01  0.196E-01
  14.915  0.116E+00  0.283E-01  0.199E-01  0.199E-01  0.283E-01  0.199E-01
  14.935  0.117E+00  0.283E-01  0.202E-01  0.202E-01  0.283E-01  0.202E-01
  14.955  0.118E+00  0.283E-01  0.205E-01  0.205E-01  0.283E-01  0.205E-01
  14.975  0.119E+00  0.283E-01  0.208E-01  0.208E-01  0.283E-01  0.208E-01
  14.995  0.120E+00  0.284E-01  0.211E-01  0.211E-01  0.284E-01  0.211E-01
  15.015  0.121E+00  0.284E-01  0.215E-01  0.215E-01  0.284E-01  0.215E-01
  15.035  0.123E+00  0.285E-01  0.219E-01  0.219E-01  0.285E-01  0.219E-01
  15.055  0.124E+00  0.285E-01  0.223E-01  0.223E-01  0.285E-01  0.223E-01
  15.075  0.125E+00  0.286E-01  0.228E-01  0.228E-01  0.286E-01  0.228E-01
  15.095  0.127E+00  0.287E-01  0.232E-01  0.232E-01  0.287E-01  0.232E-01
  15.115  0.129E+00  0.288E-01  0.237E-01  0.237E-01  0.288E-01  0.237E-01
  15.135  0.130E+00  0.288E-01  0.242E-01  0.242E-01  0.288E-01  0.242E-01
  15.155  0.132E+00  0.289E-01  0.248E-01  0.248E-01  0.289E-01  0.248E-01
  15.175  0.134E+00  0.290E-01  0.254E-01  0.254E-01  0.290E-01  0.254E-01
  15.195  0.136E+00  0.292E-01  0.259E-01  0.259E-01  0.292E-01  0.259E-01
  15.215  0.138E+00  0.293E-01  0.265E-01  0.265E-01  0.293E-01  0.265E-01
  15.235  0.140E+00  0.294E-01  0.271E-01  0.271E-01  0.294E-01  0.271E-01
  15.255  0.142E+00  0.296E-01  0.278E-01  0.278E-01  0.296E-01  0.278E-01
  15.275  0.145E+00  0.298E-01  0.284E-01  0.284E-01  0.298E-01  0.284E-01
  15.295  0.147E+00  0.300E-01  0.290E-01  0.290E-01  0.300E-01  0.290E-01
  15.315  0.149E+00  0.302E-01  0.296E-01  0.296E-01  0.302E-01  0.296E-01
  15.335  0.152E+00  0.305E-01  0.302E-01  0.302E-01  0.305E-01  0.302E-01
  15.355  0.154E+00  0.307E-01  0.308E-01  0.308E-01  0.307E-01  0.308E-01
  15.375  0.156E+00  0.310E-01  0.315E-01  0.315E-01  0.310E-01  0.315E-01
  15.395  0.159E+00  0.313E-01  0.320E-01  0.320E-01  0.313E-01  0.320E-01
  15.415  0.161E+00  0.317E-01  0.326E-01  0.326E-01  0.317E-01  0.326E-01
  15.435  0.164E+00  0.320E-01  0.332E-01  0.332E-01  0.320E-01  0.332E-01
  15.455  0.166E+00  0.324E-01  0.337E-01  0.337E-01  0.324E-01  0.337E-01
  15.475  0.168E+00  0.328E-01  0.342E-01  0.342E-01  0.328E-01  0.342E-01
  15.495  0.171E+00  0.333E-01  0.347E-01  0.347E-01  0.333E-01  0.347E-01
  15.515  0.173E+00  0.337E-01  0.352E-01  0.352E-01  0.337E-01  0.352E-01
  15.535  0.175E+00  0.342E-01  0.357E-01  0.357E-01  0.342E-01  0.357E-01
  15.555  0.178E+00  0.347E-01  0.361E-01  0.361E-01  0.347E-01  0.361E-01
  15.575  0.180E+00  0.351E-01  0.366E-01  0.366E-01  0.351E-01  0.366E-01
  15.595  0.182E+00  0.356E-01  0.370E-01  0.370E-01  0.356E-01  0.370E-01
  15.615  0.185E+00  0.361E-01  0.374E-01  0.374E-01  0.361E-01  0.374E-01
  15.635  0.187E+00  0.366E-01  0.378E-01  0.378E-01  0.366E-01  0.378E-01
  15.655  0.189E+00  0.371E-01  0.383E-01  0.383E-01  0.371E-01  0.383E-01
  15.675  0.191E+00  0.376E-01  0.387E-01  0.387E-01  0.376E-01  0.387E-01
  15.695  0.193E+00  0.380E-01  0.391E-01  0.391E-01  0.380E-01  0.391E-01
  15.715  0.196E+00  0.385E-01  0.395E-01  0.395E-01  0.385E-01  0.395E-01
  15.735  0.198E+00  0.389E-01  0.400E-01  0.400E-01  0.389E-01  0.400E-01
  15.755  0.200E+00  0.393E-01  0.404E-01  0.404E-01  0.393E-01  0.404E-01
  15.775  0.202E+00  0.397E-01  0.409E-01  0.409E-01  0.397E-01  0.409E-01
  15.795  0.204E+00  0.401E-01  0.414E-01  0.414E-01  0.401E-01  0.414E-01
  15.815  0.207E+00  0.404E-01  0.420E-01  0.420E-01  0.404E-01  0.420E-01
  15.835  0.209E+00  0.407E-01  0.425E-01  0.425E-01  0.407E-01  0.425E-01
  15.855  0.211E+00  0.410E-01  0.431E-01  0.431E-01  0.410E-01  0.431E-01
  15.875  0.214E+00  0.412E-01  0.437E-01  0.437E-01  0.412E-01  0.437E-01
  15.895  0.216E+00  0.414E-01  0.444E-01  0.444E-01  0.414E-01  0.444E-01
  15.915  0.218E+00  0.415E-01  0.451E-01  0.451E-01  0.415E-01  0.451E-01
  15.935  0.221E+00  0.416E-01  0.458E-01  0.458E-01  0.416E-01  0.458E-01
  15.955  0.223E+00  0.417E-01  0.465E-01  0.465E-01  0.417E-01  0.465E-01
  15.975  0.225E+00  0.418E-01  0.473E-01  0.473E-01  0.418E-01  0.473E-01
  15.995  0.228E+00  0.418E-01  0.480E-01  0.480E-01  0.418E-01  0.480E-01
  16.015  0.230E+00  0.417E-01  0.488E-01  0.488E-01  0.417E-01  0.488E-01
  16.035  0.232E+00  0.417E-01  0.495E-01  0.495E-01  0.417E-01  0.495E-01
  16.055  0.234E+00  0.415E-01  0.503E-01  0.503E-01  0.415E-01  0.503E-01
  16.075  0.236E+00  0.414E-01  0.511E-01  0.511E-01  0.414E-01  0.511E-01
  16.095  0.238E+00  0.412E-01  0.518E-01  0.518E-01  0.412E-01  0.518E-01
  16.115  0.239E+00  0.410E-01  0.525E-01  0.525E-01  0.410E-01  0.525E-01
  16.135  0.241E+00  0.407E-01  0.531E-01  0.531E-01  0.407E-01  0.531E-01
  16.155  0.242E+00  0.404E-01  0.538E-01  0.538E-01  0.404E-01  0.538E-01
  16.175  0.243E+00  0.401E-01  0.543E-01  0.543E-01  0.401E-01  0.543E-01
  16.195  0.244E+00  0.397E-01  0.548E-01  0.548E-01  0.397E-01  0.548E-01
  16.215  0.244E+00  0.393E-01  0.553E-01  0.553E-01  0.393E-01  0.553E-01
  16.235  0.245E+00  0.389E-01  0.556E-01  0.556E-01  0.389E-01  0.556E-01
  16.255  0.245E+00  0.384E-01  0.559E-01  0.559E-01  0.384E-01  0.559E-01
  16.275  0.244E+00  0.380E-01  0.561E-01  0.561E-01  0.380E-01  0.561E-01
  16.295  0.244E+00  0.375E-01  0.562E-01  0.562E-01  0.375E-01  0.562E-01
  16.315  0.243E+00  0.370E-01  0.562E-01  0.562E-01  0.370E-01  0.562E-01
  16.335  0.241E+00  0.364E-01  0.561E-01  0.561E-01  0.364E-01  0.561E-01
  16.355  0.240E+00  0.359E-01  0.560E-01  0.560E-01  0.359E-01  0.560E-01
  16.375  0.238E+00  0.353E-01  0.557E-01  0.557E-01  0.353E-01  0.557E-01
  16.395  0.236E+00  0.348E-01  0.553E-01  0.553E-01  0.348E-01  0.553E-01
  16.415  0.233E+00  0.342E-01  0.549E-01  0.549E-01  0.342E-01  0.549E-01
  16.435  0.231E+00  0.337E-01  0.544E-01  0.544E-01  0.337E-01  0.544E-01
  16.455  0.228E+00  0.331E-01  0.538E-01  0.538E-01  0.331E-01  0.538E-01
  16.475  0.225E+00  0.326E-01  0.531E-01  0.531E-01  0.326E-01  0.531E-01
  16.495  0.221E+00  0.321E-01  0.524E-01  0.524E-01  0.321E-01  0.524E-01
  16.515  0.218E+00  0.316E-01  0.516E-01  0.516E-01  0.316E-01  0.516E-01
  16.535  0.215E+00  0.311E-01  0.508E-01  0.508E-01  0.311E-01  0.508E-01
  16.555  0.211E+00  0.307E-01  0.499E-01  0.499E-01  0.307E-01  0.499E-01
  16.575  0.208E+00  0.303E-01  0.490E-01  0.490E-01  0.303E-01  0.490E-01
  16.595  0.204E+00  0.299E-01  0.481E-01  0.481E-01  0.299E-01  0.481E-01
  16.615  0.200E+00  0.295E-01  0.471E-01  0.471E-01  0.295E-01  0.471E-01
  16.635  0.197E+00  0.292E-01  0.462E-01  0.462E-01  0.292E-01  0.462E-01
  16.655  0.194E+00  0.289E-01  0.453E-01  0.453E-01  0.289E-01  0.453E-01
  16.675  0.190E+00  0.287E-01  0.443E-01  0.443E-01  0.287E-01  0.443E-01
  16.695  0.187E+00  0.285E-01  0.434E-01  0.434E-01  0.285E-01  0.434E-01
  16.715  0.184E+00  0.283E-01  0.425E-01  0.425E-01  0.283E-01  0.425E-01
  16.735  0.181E+00  0.281E-01  0.417E-01  0.417E-01  0.281E-01  0.417E-01
  16.755  0.179E+00  0.280E-01  0.408E-01  0.408E-01  0.280E-01  0.408E-01
  16.775  0.176E+00  0.279E-01  0.400E-01  0.400E-01  0.279E-01  0.400E-01
  16.795  0.174E+00  0.278E-01  0.393E-01  0.393E-01  0.278E-01  0.393E-01
  16.815  0.171E+00  0.278E-01  0.386E-01  0.386E-01  0.278E-01  0.386E-01
  16.835  0.169E+00  0.278E-01  0.379E-01  0.379E-01  0.278E-01  0.379E-01
  16.855  0.167E+00  0.277E-01  0.373E-01  0.373E-01  0.277E-01  0.373E-01
  16.875  0.165E+00  0.277E-01  0.367E-01  0.367E-01  0.277E-01  0.367E-01
  16.895  0.164E+00  0.277E-01  0.361E-01  0.361E-01  0.277E-01  0.361E-01
  16.915  0.162E+00  0.277E-01  0.356E-01  0.356E-01  0.277E-01  0.356E-01
  16.935  0.161E+00  0.276E-01  0.352E-01  0.352E-01  0.276E-01  0.352E-01
  16.955  0.159E+00  0.276E-01  0.348E-01  0.348E-01  0.276E-01  0.348E-01
  16.975  0.158E+00  0.275E-01  0.344E-01  0.344E-01  0.275E-01  0.344E-01
  16.995  0.157E+00  0.274E-01  0.340E-01  0.340E-01  0.274E-01  0.340E-01
  17.015  0.156E+00  0.273E-01  0.337E-01  0.337E-01  0.273E-01  0.337E-01
  17.035  0.154E+00  0.271E-01  0.334E-01  0.334E-01  0.271E-01  0.334E-01
  17.055  0.153E+00  0.270E-01  0.331E-01  0.331E-01  0.270E-01  0.331E-01
  17.075  0.152E+00  0.267E-01  0.329E-01  0.329E-01  0.267E-01  0.329E-01
  17.095  0.151E+00  0.265E-01  0.327E-01  0.327E-01  0.265E-01  0.327E-01
  17.115  0.150E+00  0.262E-01  0.325E-01  0.325E-01  0.262E-01  0.325E-01
  17.135  0.149E+00  0.259E-01  0.323E-01  0.323E-01  0.259E-01  0.323E-01
  17.155  0.147E+00  0.255E-01  0.321E-01  0.321E-01  0.255E-01  0.321E-01
  17.175  0.146E+00  0.251E-01  0.319E-01  0.319E-01  0.251E-01  0.319E-01
  17.195  0.145E+00  0.247E-01  0.318E-01  0.318E-01  0.247E-01  0.318E-01
  17.215  0.143E+00  0.243E-01  0.316E-01  0.316E-01  0.243E-01  0.316E-01
  17.235  0.142E+00  0.238E-01  0.315E-01  0.315E-01  0.238E-01  0.315E-01
  17.255  0.141E+00  0.233E-01  0.314E-01  0.314E-01  0.233E-01  0.314E-01
  17.275  0.139E+00  0.228E-01  0.312E-01  0.312E-01  0.228E-01  0.312E-01
  17.295  0.138E+00  0.223E-01  0.311E-01  0.311E-01  0.223E-01  0.311E-01
  17.315  0.137E+00  0.218E-01  0.310E-01  0.310E-01  0.218E-01  0.310E-01
  17.335  0.135E+00  0.212E-01  0.309E-01  0.309E-01  0.212E-01  0.309E-01
  17.355  0.134E+00  0.207E-01  0.307E-01  0.307E-01  0.207E-01  0.307E-01
  17.375  0.132E+00  0.201E-01  0.306E-01  0.306E-01  0.201E-01  0.306E-01
  17.395  0.131E+00  0.196E-01  0.305E-01  0.305E-01  0.196E-01  0.305E-01
  17.415  0.129E+00  0.191E-01  0.303E-01  0.303E-01  0.191E-01  0.303E-01
  17.435  0.128E+00  0.186E-01  0.302E-01  0.302E-01  0.186E-01  0.302E-01
  17.455  0.126E+00  0.181E-01  0.300E-01  0.300E-01  0.181E-01  0.300E-01
  17.475  0.125E+00  0.176E-01  0.298E-01  0.298E-01  0.176E-01  0.298E-01
  17.495  0.123E+00  0.171E-01  0.296E-01  0.296E-01  0.171E-01  0.296E-01
  17.515  0.122E+00  0.166E-01  0.294E-01  0.294E-01  0.166E-01  0.294E-01
  17.535  0.120E+00  0.162E-01  0.292E-01  0.292E-01  0.162E-01  0.292E-01
  17.555  0.118E+00  0.158E-01  0.289E-01  0.289E-01  0.158E-01  0.289E-01
  17.575  0.117E+00  0.154E-01  0.286E-01  0.286E-01  0.154E-01  0.286E-01
  17.595  0.115E+00  0.151E-01  0.283E-01  0.283E-01  0.151E-01  0.283E-01
  17.615  0.114E+00  0.147E-01  0.280E-01  0.280E-01  0.147E-01  0.280E-01
  17.635  0.112E+00  0.144E-01  0.277E-01  0.277E-01  0.144E-01  0.277E-01
  17.655  0.110E+00  0.141E-01  0.273E-01  0.273E-01  0.141E-01  0.273E-01
  17.675  0.109E+00  0.139E-01  0.270E-01  0.270E-01  0.139E-01  0.270E-01
  17.695  0.107E+00  0.136E-01  0.266E-01  0.266E-01  0.136E-01  0.266E-01
  17.715  0.105E+00  0.134E-01  0.261E-01  0.261E-01  0.134E-01  0.261E-01
  17.735  0.104E+00  0.132E-01  0.257E-01  0.257E-01  0.132E-01  0.257E-01
  17.755  0.102E+00  0.130E-01  0.253E-01  0.253E-01  0.130E-01  0.253E-01
  17.775  0.100E+00  0.129E-01  0.248E-01  0.248E-01  0.129E-01  0.248E-01
  17.795  0.985E-01  0.127E-01  0.244E-01  0.244E-01  0.127E-01  0.244E-01
  17.815  0.968E-01  0.126E-01  0.239E-01  0.239E-01  0.126E-01  0.239E-01
  17.835  0.952E-01  0.124E-01  0.234E-01  0.234E-01  0.124E-01  0.234E-01
  17.855  0.935E-01  0.123E-01  0.230E-01  0.230E-01  0.123E-01  0.230E-01
  17.875  0.919E-01  0.122E-01  0.225E-01  0.225E-01  0.122E-01  0.225E-01
  17.895  0.903E-01  0.121E-01  0.221E-01  0.221E-01  0.121E-01  0.221E-01
  17.915  0.888E-01  0.120E-01  0.216E-01  0.216E-01  0.120E-01  0.216E-01
  17.935  0.872E-01  0.119E-01  0.212E-01  0.212E-01  0.119E-01  0.212E-01
  17.955  0.858E-01  0.117E-01  0.208E-01  0.208E-01  0.117E-01  0.208E-01
  17.975  0.843E-01  0.116E-01  0.203E-01  0.203E-01  0.116E-01  0.203E-01
  17.995  0.829E-01  0.115E-01  0.199E-01  0.199E-01  0.115E-01  0.199E-01
  18.015  0.815E-01  0.114E-01  0.196E-01  0.196E-01  0.114E-01  0.196E-01
  18.035  0.802E-01  0.113E-01  0.192E-01  0.192E-01  0.113E-01  0.192E-01
  18.055  0.789E-01  0.112E-01  0.189E-01  0.189E-01  0.112E-01  0.189E-01
  18.075  0.776E-01  0.110E-01  0.185E-01  0.185E-01  0.110E-01  0.185E-01
  18.095  0.764E-01  0.109E-01  0.182E-01  0.182E-01  0.109E-01  0.182E-01
  18.115  0.752E-01  0.107E-01  0.179E-01  0.179E-01  0.107E-01  0.179E-01
  18.135  0.740E-01  0.106E-01  0.176E-01  0.176E-01  0.106E-01  0.176E-01
  18.155  0.729E-01  0.104E-01  0.174E-01  0.174E-01  0.104E-01  0.174E-01
  18.175  0.717E-01  0.102E-01  0.171E-01  0.171E-01  0.102E-01  0.171E-01
  18.195  0.706E-01  0.100E-01  0.169E-01  0.169E-01  0.100E-01  0.169E-01
  18.215  0.694E-01  0.981E-02  0.166E-01  0.166E-01  0.981E-02  0.166E-01
  18.235  0.683E-01  0.960E-02  0.164E-01  0.164E-01  0.960E-02  0.164E-01
  18.255  0.671E-01  0.939E-02  0.161E-01  0.161E-01  0.939E-02  0.161E-01
  18.275  0.660E-01  0.917E-02  0.159E-01  0.159E-01  0.917E-02  0.159E-01
  18.295  0.648E-01  0.895E-02  0.156E-01  0.156E-01  0.895E-02  0.156E-01
  18.315  0.636E-01  0.872E-02  0.154E-01  0.154E-01  0.872E-02  0.154E-01
  18.335  0.624E-01  0.849E-02  0.151E-01  0.151E-01  0.849E-02  0.151E-01
  18.355  0.611E-01  0.825E-02  0.149E-01  0.149E-01  0.825E-02  0.149E-01
  18.375  0.599E-01  0.801E-02  0.146E-01  0.146E-01  0.801E-02  0.146E-01
  18.395  0.586E-01  0.777E-02  0.144E-01  0.144E-01  0.777E-02  0.144E-01
  18.415  0.574E-01  0.754E-02  0.141E-01  0.141E-01  0.754E-02  0.141E-01
  18.435  0.561E-01  0.730E-02  0.138E-01  0.138E-01  0.730E-02  0.138E-01
  18.455  0.548E-01  0.707E-02  0.136E-01  0.136E-01  0.707E-02  0.136E-01
  18.475  0.536E-01  0.684E-02  0.133E-01  0.133E-01  0.684E-02  0.133E-01
  18.495  0.523E-01  0.661E-02  0.130E-01  0.130E-01  0.661E-02  0.130E-01
  18.515  0.511E-01  0.639E-02  0.128E-01  0.128E-01  0.639E-02  0.128E-01
  18.535  0.498E-01  0.617E-02  0.125E-01  0.125E-01  0.617E-02  0.125E-01
  18.555  0.486E-01  0.597E-02  0.122E-01  0.122E-01  0.597E-02  0.122E-01
  18.575  0.475E-01  0.576E-02  0.120E-01  0.120E-01  0.576E-02  0.120E-01
  18.595  0.463E-01  0.557E-02  0.117E-01  0.117E-01  0.557E-02  0.117E-01
  18.615  0.452E-01  0.538E-02  0.115E-01  0.115E-01  0.538E-02  0.115E-01
  18.635  0.442E-01  0.520E-02  0.113E-01  0.113E-01  0.520E-02  0.113E-01
  18.655  0.432E-01  0.503E-02  0.110E-01  0.110E-01  0.503E-02  0.110E-01
  18.675  0.422E-01  0.487E-02  0.108E-01  0.108E-01  0.487E-02  0.108E-01
  18.695  0.413E-01  0.471E-02  0.106E-01  0.106E-01  0.471E-02  0.106E-01
  18.715  0.404E-01  0.456E-02  0.104E-01  0.104E-01  0.456E-02  0.104E-01
  18.735  0.396E-01  0.442E-02  0.103E-01  0.103E-01  0.442E-02  0.103E-01
  18.755  0.388E-01  0.428E-02  0.101E-01  0.101E-01  0.428E-02  0.101E-01
  18.775  0.380E-01  0.415E-02  0.992E-02  0.992E-02  0.415E-02  0.992E-02
  18.795  0.373E-01  0.402E-02  0.976E-02  0.976E-02  0.402E-02  0.976E-02
  18.815  0.366E-01  0.390E-02  0.960E-02  0.960E-02  0.390E-02  0.960E-02
  18.835  0.359E-01  0.378E-02  0.945E-02  0.945E-02  0.378E-02  0.945E-02
  18.855  0.352E-01  0.366E-02  0.930E-02  0.930E-02  0.366E-02  0.930E-02
  18.875  0.345E-01  0.355E-02  0.915E-02  0.915E-02  0.355E-02  0.915E-02
  18.895  0.339E-01  0.344E-02  0.900E-02  0.900E-02  0.344E-02  0.900E-02
  18.915  0.332E-01  0.333E-02  0.884E-02  0.884E-02  0.333E-02  0.884E-02
  18.935  0.325E-01  0.322E-02  0.868E-02  0.868E-02  0.322E-02  0.868E-02
  18.955  0.318E-01  0.311E-02  0.851E-02  0.851E-02  0.311E-02  0.851E-02
  18.975  0.310E-01  0.301E-02  0.834E-02  0.834E-02  0.301E-02  0.834E-02
  18.995  0.303E-01  0.290E-02  0.815E-02  0.815E-02  0.290E-02  0.815E-02
  19.015  0.295E-01  0.279E-02  0.796E-02  0.796E-02  0.279E-02  0.796E-02
  19.035  0.287E-01  0.269E-02  0.776E-02  0.776E-02  0.269E-02  0.776E-02
  19.055  0.278E-01  0.258E-02  0.755E-02  0.755E-02  0.258E-02  0.755E-02
  19.075  0.270E-01  0.248E-02  0.734E-02  0.734E-02  0.248E-02  0.734E-02
  19.095  0.261E-01  0.237E-02  0.711E-02  0.711E-02  0.237E-02  0.711E-02
  19.115  0.252E-01  0.227E-02  0.688E-02  0.688E-02  0.227E-02  0.688E-02
  19.135  0.242E-01  0.216E-02  0.664E-02  0.664E-02  0.216E-02  0.664E-02
  19.155  0.233E-01  0.206E-02  0.640E-02  0.640E-02  0.206E-02  0.640E-02
  19.175  0.224E-01  0.196E-02  0.615E-02  0.615E-02  0.196E-02  0.615E-02
  19.195  0.214E-01  0.186E-02  0.590E-02  0.590E-02  0.186E-02  0.590E-02
  19.215  0.205E-01  0.176E-02  0.565E-02  0.565E-02  0.176E-02  0.565E-02
  19.235  0.195E-01  0.167E-02  0.540E-02  0.540E-02  0.167E-02  0.540E-02
  19.255  0.186E-01  0.157E-02  0.516E-02  0.516E-02  0.157E-02  0.516E-02
  19.275  0.177E-01  0.148E-02  0.492E-02  0.492E-02  0.148E-02  0.492E-02
  19.295  0.168E-01  0.140E-02  0.468E-02  0.468E-02  0.140E-02  0.468E-02
  19.315  0.160E-01  0.132E-02  0.445E-02  0.445E-02  0.132E-02  0.445E-02
  19.335  0.152E-01  0.124E-02  0.424E-02  0.424E-02  0.124E-02  0.424E-02
  19.355  0.144E-01  0.116E-02  0.403E-02  0.403E-02  0.116E-02  0.403E-02
  19.375  0.137E-01  0.110E-02  0.384E-02  0.384E-02  0.110E-02  0.384E-02
  19.395  0.130E-01  0.103E-02  0.366E-02  0.366E-02  0.103E-02  0.366E-02
  19.415  0.124E-01  0.971E-03  0.349E-02  0.349E-02  0.971E-03  0.349E-02
  19.435  0.118E-01  0.915E-03  0.333E-02  0.333E-02  0.915E-03  0.333E-02
  19.455  0.113E-01  0.865E-03  0.319E-02  0.319E-02  0.865E-03  0.319E-02
  19.475  0.108E-01  0.818E-03  0.307E-02  0.307E-02  0.818E-03  0.307E-02
  19.495  0.104E-01  0.777E-03  0.296E-02  0.296E-02  0.777E-03  0.296E-02
  19.515  0.101E-01  0.740E-03  0.286E-02  0.286E-02  0.740E-03  0.286E-02
  19.535  0.976E-02  0.707E-03  0.278E-02  0.278E-02  0.707E-03  0.278E-02
  19.555  0.949E-02  0.677E-03  0.271E-02  0.271E-02  0.677E-03  0.271E-02
  19.575  0.926E-02  0.652E-03  0.265E-02  0.265E-02  0.652E-03  0.265E-02
  19.595  0.908E-02  0.630E-03  0.261E-02  0.261E-02  0.630E-03  0.261E-02
  19.615  0.893E-02  0.611E-03  0.257E-02  0.257E-02  0.611E-03  0.257E-02
  19.635  0.882E-02  0.594E-03  0.254E-02  0.254E-02  0.594E-03  0.254E-02
  19.655  0.873E-02  0.580E-03  0.252E-02  0.252E-02  0.580E-03  0.252E-02
  19.675  0.866E-02  0.568E-03  0.251E-02  0.251E-02  0.568E-03  0.251E-02
  19.695  0.862E-02  0.558E-03  0.250E-02  0.250E-02  0.558E-03  0.250E-02
  19.715  0.858E-02  0.549E-03  0.250E-02  0.250E-02  0.549E-03  0.250E-02
  19.735  0.856E-02  0.541E-03  0.249E-02  0.249E-02  0.541E-03  0.249E-02
  19.755  0.855E-02  0.534E-03  0.249E-02  0.249E-02  0.534E-03  0.249E-02
  19.775  0.854E-02  0.528E-03  0.249E-02  0.249E-02  0.528E-03  0.249E-02
  19.795  0.852E-02  0.522E-03  0.249E-02  0.249E-02  0.522E-03  0.249E-02
  19.815  0.851E-02  0.516E-03  0.249E-02  0.249E-02  0.516E-03  0.249E-02
  19.835  0.848E-02  0.510E-03  0.249E-02  0.249E-02  0.510E-03  0.249E-02
  19.855  0.845E-02  0.504E-03  0.248E-02  0.248E-02  0.504E-03  0.248E-02
  19.875  0.841E-02  0.498E-03  0.247E-02  0.247E-02  0.498E-03  0.247E-02
  19.895  0.836E-02  0.492E-03  0.246E-02  0.246E-02  0.492E-03  0.246E-02
  19.915  0.829E-02  0.485E-03  0.244E-02  0.244E-02  0.485E-03  0.244E-02
  19.935  0.821E-02  0.478E-03  0.242E-02  0.242E-02  0.478E-03  0.242E-02
  19.955  0.811E-02  0.470E-03  0.239E-02  0.239E-02  0.470E-03  0.239E-02
  19.975  0.801E-02  0.462E-03  0.236E-02  0.236E-02  0.462E-03  0.236E-02
  19.995  0.789E-02  0.454E-03  0.233E-02  0.233E-02  0.454E-03  0.233E-02
  20.015  0.775E-02  0.446E-03  0.229E-02  0.229E-02  0.446E-03  0.229E-02
  20.035  0.761E-02  0.437E-03  0.224E-02  0.224E-02  0.437E-03  0.224E-02
  20.055  0.745E-02  0.429E-03  0.220E-02  0.220E-02  0.429E-03  0.220E-02
  20.075  0.729E-02  0.420E-03  0.215E-02  0.215E-02  0.420E-03  0.215E-02
  20.095  0.712E-02  0.412E-03  0.210E-02  0.210E-02  0.412E-03  0.210E-02
  20.115  0.694E-02  0.403E-03  0.204E-02  0.204E-02  0.403E-03  0.204E-02
  20.135  0.676E-02  0.396E-03  0.199E-02  0.199E-02  0.396E-03  0.199E-02
  20.155  0.658E-02  0.388E-03  0.193E-02  0.193E-02  0.388E-03  0.193E-02
  20.175  0.640E-02  0.381E-03  0.188E-02  0.188E-02  0.381E-03  0.188E-02
  20.195  0.622E-02  0.374E-03  0.182E-02  0.182E-02  0.374E-03  0.182E-02
  20.215  0.604E-02  0.368E-03  0.177E-02  0.177E-02  0.368E-03  0.177E-02
  20.235  0.587E-02  0.363E-03  0.172E-02  0.172E-02  0.363E-03  0.172E-02
  20.255  0.571E-02  0.358E-03  0.167E-02  0.167E-02  0.358E-03  0.167E-02
  20.275  0.556E-02  0.354E-03  0.162E-02  0.162E-02  0.354E-03  0.162E-02
  20.295  0.542E-02  0.351E-03  0.157E-02  0.157E-02  0.351E-03  0.157E-02
  20.315  0.530E-02  0.349E-03  0.153E-02  0.153E-02  0.349E-03  0.153E-02
  20.335  0.518E-02  0.347E-03  0.150E-02  0.150E-02  0.347E-03  0.150E-02
  20.355  0.509E-02  0.346E-03  0.147E-02  0.147E-02  0.346E-03  0.147E-02
  20.375  0.501E-02  0.346E-03  0.144E-02  0.144E-02  0.346E-03  0.144E-02
  20.395  0.494E-02  0.347E-03  0.142E-02  0.142E-02  0.347E-03  0.142E-02
  20.415  0.490E-02  0.348E-03  0.140E-02  0.140E-02  0.348E-03  0.140E-02
  20.435  0.487E-02  0.350E-03  0.139E-02  0.139E-02  0.350E-03  0.139E-02
  20.455  0.487E-02  0.354E-03  0.139E-02  0.139E-02  0.354E-03  0.139E-02
  20.475  0.488E-02  0.357E-03  0.139E-02  0.139E-02  0.357E-03  0.139E-02
  20.495  0.491E-02  0.362E-03  0.140E-02  0.140E-02  0.362E-03  0.140E-02
  20.515  0.497E-02  0.367E-03  0.141E-02  0.141E-02  0.367E-03  0.141E-02
  20.535  0.504E-02  0.373E-03  0.143E-02  0.143E-02  0.373E-03  0.143E-02
  20.555  0.514E-02  0.380E-03  0.146E-02  0.146E-02  0.380E-03  0.146E-02
  20.575  0.525E-02  0.387E-03  0.149E-02  0.149E-02  0.387E-03  0.149E-02
  20.595  0.539E-02  0.395E-03  0.153E-02  0.153E-02  0.395E-03  0.153E-02
  20.615  0.554E-02  0.403E-03  0.158E-02  0.158E-02  0.403E-03  0.158E-02
  20.635  0.570E-02  0.412E-03  0.163E-02  0.163E-02  0.412E-03  0.163E-02
  20.655  0.589E-02  0.421E-03  0.168E-02  0.168E-02  0.421E-03  0.168E-02
  20.675  0.609E-02  0.431E-03  0.174E-02  0.174E-02  0.431E-03  0.174E-02
  20.695  0.630E-02  0.441E-03  0.181E-02  0.181E-02  0.441E-03  0.181E-02
  20.715  0.652E-02  0.452E-03  0.187E-02  0.187E-02  0.452E-03  0.187E-02
  20.735  0.675E-02  0.462E-03  0.194E-02  0.194E-02  0.462E-03  0.194E-02
  20.755  0.699E-02  0.473E-03  0.202E-02  0.202E-02  0.473E-03  0.202E-02
  20.775  0.724E-02  0.484E-03  0.209E-02  0.209E-02  0.484E-03  0.209E-02
  20.795  0.748E-02  0.494E-03  0.216E-02  0.216E-02  0.494E-03  0.216E-02
  20.815  0.773E-02  0.505E-03  0.224E-02  0.224E-02  0.505E-03  0.224E-02
  20.835  0.798E-02  0.515E-03  0.232E-02  0.232E-02  0.515E-03  0.232E-02
  20.855  0.822E-02  0.525E-03  0.239E-02  0.239E-02  0.525E-03  0.239E-02
  20.875  0.845E-02  0.535E-03  0.246E-02  0.246E-02  0.535E-03  0.246E-02
  20.895  0.868E-02  0.545E-03  0.253E-02  0.253E-02  0.545E-03  0.253E-02
  20.915  0.889E-02  0.554E-03  0.260E-02  0.260E-02  0.554E-03  0.260E-02
  20.935  0.910E-02  0.562E-03  0.266E-02  0.266E-02  0.562E-03  0.266E-02
  20.955  0.928E-02  0.570E-03  0.271E-02  0.271E-02  0.570E-03  0.271E-02
  20.975  0.945E-02  0.577E-03  0.277E-02  0.277E-02  0.577E-03  0.277E-02
  20.995  0.960E-02  0.583E-03  0.281E-02  0.281E-02  0.583E-03  0.281E-02
  21.015  0.974E-02  0.589E-03  0.285E-02  0.285E-02  0.589E-03  0.285E-02
  21.035  0.985E-02  0.594E-03  0.289E-02  0.289E-02  0.594E-03  0.289E-02
  21.055  0.994E-02  0.599E-03  0.291E-02  0.291E-02  0.599E-03  0.291E-02
  21.075  0.100E-01  0.603E-03  0.294E-02  0.294E-02  0.603E-03  0.294E-02
  21.095  0.101E-01  0.606E-03  0.295E-02  0.295E-02  0.606E-03  0.295E-02
  21.115  0.101E-01  0.608E-03  0.296E-02  0.296E-02  0.608E-03  0.296E-02
  21.135  0.101E-01  0.610E-03  0.296E-02  0.296E-02  0.610E-03  0.296E-02
  21.155  0.101E-01  0.611E-03  0.296E-02  0.296E-02  0.611E-03  0.296E-02
  21.175  0.101E-01  0.612E-03  0.295E-02  0.295E-02  0.612E-03  0.295E-02
  21.195  0.100E-01  0.612E-03  0.294E-02  0.294E-02  0.612E-03  0.294E-02
  21.215  0.999E-02  0.612E-03  0.292E-02  0.292E-02  0.612E-03  0.292E-02
  21.235  0.993E-02  0.612E-03  0.290E-02  0.290E-02  0.612E-03  0.290E-02
  21.255  0.986E-02  0.611E-03  0.288E-02  0.288E-02  0.611E-03  0.288E-02
  21.275  0.979E-02  0.610E-03  0.286E-02  0.286E-02  0.610E-03  0.286E-02
  21.295  0.972E-02  0.609E-03  0.283E-02  0.283E-02  0.609E-03  0.283E-02
  21.315  0.964E-02  0.609E-03  0.281E-02  0.281E-02  0.609E-03  0.281E-02
  21.335  0.957E-02  0.608E-03  0.279E-02  0.279E-02  0.608E-03  0.279E-02
  21.355  0.951E-02  0.608E-03  0.277E-02  0.277E-02  0.608E-03  0.277E-02
  21.375  0.946E-02  0.608E-03  0.275E-02  0.275E-02  0.608E-03  0.275E-02
  21.395  0.941E-02  0.608E-03  0.273E-02  0.273E-02  0.608E-03  0.273E-02
  21.415  0.938E-02  0.609E-03  0.272E-02  0.272E-02  0.609E-03  0.272E-02
  21.435  0.937E-02  0.610E-03  0.272E-02  0.272E-02  0.610E-03  0.272E-02
  21.455  0.937E-02  0.612E-03  0.271E-02  0.271E-02  0.612E-03  0.271E-02
  21.475  0.938E-02  0.614E-03  0.272E-02  0.272E-02  0.614E-03  0.272E-02
  21.495  0.942E-02  0.617E-03  0.273E-02  0.273E-02  0.617E-03  0.273E-02
  21.515  0.947E-02  0.621E-03  0.274E-02  0.274E-02  0.621E-03  0.274E-02
  21.535  0.954E-02  0.625E-03  0.276E-02  0.276E-02  0.625E-03  0.276E-02
  21.555  0.963E-02  0.629E-03  0.279E-02  0.279E-02  0.629E-03  0.279E-02
  21.575  0.974E-02  0.634E-03  0.282E-02  0.282E-02  0.634E-03  0.282E-02
  21.595  0.986E-02  0.640E-03  0.286E-02  0.286E-02  0.640E-03  0.286E-02
  21.615  0.999E-02  0.645E-03  0.290E-02  0.290E-02  0.645E-03  0.290E-02
  21.635  0.101E-01  0.651E-03  0.295E-02  0.295E-02  0.651E-03  0.295E-02
  21.655  0.103E-01  0.656E-03  0.300E-02  0.300E-02  0.656E-03  0.300E-02
  21.675  0.105E-01  0.662E-03  0.305E-02  0.305E-02  0.662E-03  0.305E-02
  21.695  0.106E-01  0.667E-03  0.310E-02  0.310E-02  0.667E-03  0.310E-02
  21.715  0.108E-01  0.672E-03  0.316E-02  0.316E-02  0.672E-03  0.316E-02
  21.735  0.110E-01  0.676E-03  0.321E-02  0.321E-02  0.676E-03  0.321E-02
  21.755  0.112E-01  0.679E-03  0.327E-02  0.327E-02  0.679E-03  0.327E-02
  21.775  0.113E-01  0.681E-03  0.333E-02  0.333E-02  0.681E-03  0.333E-02
  21.795  0.115E-01  0.683E-03  0.338E-02  0.338E-02  0.683E-03  0.338E-02
  21.815  0.117E-01  0.683E-03  0.343E-02  0.343E-02  0.683E-03  0.343E-02
  21.835  0.118E-01  0.682E-03  0.348E-02  0.348E-02  0.682E-03  0.348E-02
  21.855  0.120E-01  0.679E-03  0.353E-02  0.353E-02  0.679E-03  0.353E-02
  21.875  0.121E-01  0.675E-03  0.358E-02  0.358E-02  0.675E-03  0.358E-02
  21.895  0.122E-01  0.670E-03  0.362E-02  0.362E-02  0.670E-03  0.362E-02
  21.915  0.123E-01  0.663E-03  0.365E-02  0.365E-02  0.663E-03  0.365E-02
  21.935  0.124E-01  0.655E-03  0.368E-02  0.368E-02  0.655E-03  0.368E-02
  21.955  0.124E-01  0.646E-03  0.371E-02  0.371E-02  0.646E-03  0.371E-02
  21.975  0.125E-01  0.635E-03  0.373E-02  0.373E-02  0.635E-03  0.373E-02
  21.995  0.125E-01  0.623E-03  0.374E-02  0.374E-02  0.623E-03  0.374E-02
  22.015  0.125E-01  0.610E-03  0.375E-02  0.375E-02  0.610E-03  0.375E-02
  22.035  0.125E-01  0.596E-03  0.376E-02  0.376E-02  0.596E-03  0.376E-02
  22.055  0.124E-01  0.582E-03  0.376E-02  0.376E-02  0.582E-03  0.376E-02
  22.075  0.124E-01  0.566E-03  0.375E-02  0.375E-02  0.566E-03  0.375E-02
  22.095  0.123E-01  0.551E-03  0.374E-02  0.374E-02  0.551E-03  0.374E-02
  22.115  0.122E-01  0.535E-03  0.373E-02  0.373E-02  0.535E-03  0.373E-02
  22.135  0.122E-01  0.519E-03  0.370E-02  0.370E-02  0.519E-03  0.370E-02
  22.155  0.120E-01  0.503E-03  0.368E-02  0.368E-02  0.503E-03  0.368E-02
  22.175  0.119E-01  0.487E-03  0.365E-02  0.365E-02  0.487E-03  0.365E-02
  22.195  0.118E-01  0.472E-03  0.361E-02  0.361E-02  0.472E-03  0.361E-02
  22.215  0.116E-01  0.458E-03  0.357E-02  0.357E-02  0.458E-03  0.357E-02
  22.235  0.115E-01  0.444E-03  0.353E-02  0.353E-02  0.444E-03  0.353E-02
  22.255  0.113E-01  0.431E-03  0.348E-02  0.348E-02  0.431E-03  0.348E-02
  22.275  0.111E-01  0.419E-03  0.344E-02  0.344E-02  0.419E-03  0.344E-02
  22.295  0.110E-01  0.407E-03  0.338E-02  0.338E-02  0.407E-03  0.338E-02
  22.315  0.108E-01  0.397E-03  0.333E-02  0.333E-02  0.397E-03  0.333E-02
  22.335  0.106E-01  0.388E-03  0.327E-02  0.327E-02  0.388E-03  0.327E-02
  22.355  0.104E-01  0.380E-03  0.322E-02  0.322E-02  0.380E-03  0.322E-02
  22.375  0.102E-01  0.373E-03  0.316E-02  0.316E-02  0.373E-03  0.316E-02
  22.395  0.100E-01  0.367E-03  0.310E-02  0.310E-02  0.367E-03  0.310E-02
  22.415  0.987E-02  0.362E-03  0.305E-02  0.305E-02  0.362E-03  0.305E-02
  22.435  0.969E-02  0.358E-03  0.299E-02  0.299E-02  0.358E-03  0.299E-02
  22.455  0.953E-02  0.354E-03  0.294E-02  0.294E-02  0.354E-03  0.294E-02
  22.475  0.937E-02  0.351E-03  0.289E-02  0.289E-02  0.351E-03  0.289E-02
  22.495  0.921E-02  0.349E-03  0.284E-02  0.284E-02  0.349E-03  0.284E-02
  22.515  0.907E-02  0.348E-03  0.279E-02  0.279E-02  0.348E-03  0.279E-02
  22.535  0.894E-02  0.346E-03  0.275E-02  0.275E-02  0.346E-03  0.275E-02
  22.555  0.882E-02  0.345E-03  0.271E-02  0.271E-02  0.345E-03  0.271E-02
  22.575  0.872E-02  0.345E-03  0.268E-02  0.268E-02  0.345E-03  0.268E-02
  22.595  0.862E-02  0.344E-03  0.264E-02  0.264E-02  0.344E-03  0.264E-02
  22.615  0.854E-02  0.343E-03  0.262E-02  0.262E-02  0.343E-03  0.262E-02
  22.635  0.847E-02  0.343E-03  0.259E-02  0.259E-02  0.343E-03  0.259E-02
  22.655  0.841E-02  0.342E-03  0.257E-02  0.257E-02  0.342E-03  0.257E-02
  22.675  0.836E-02  0.340E-03  0.256E-02  0.256E-02  0.340E-03  0.256E-02
  22.695  0.831E-02  0.339E-03  0.255E-02  0.255E-02  0.339E-03  0.255E-02
  22.715  0.828E-02  0.337E-03  0.254E-02  0.254E-02  0.337E-03  0.254E-02
  22.735  0.825E-02  0.334E-03  0.253E-02  0.253E-02  0.334E-03  0.253E-02
  22.755  0.823E-02  0.331E-03  0.252E-02  0.252E-02  0.331E-03  0.252E-02
  22.775  0.821E-02  0.328E-03  0.252E-02  0.252E-02  0.328E-03  0.252E-02
  22.795  0.819E-02  0.324E-03  0.251E-02  0.251E-02  0.324E-03  0.251E-02
  22.815  0.817E-02  0.320E-03  0.251E-02  0.251E-02  0.320E-03  0.251E-02
  22.835  0.814E-02  0.315E-03  0.251E-02  0.251E-02  0.315E-03  0.251E-02
  22.855  0.812E-02  0.309E-03  0.250E-02  0.250E-02  0.309E-03  0.250E-02
  22.875  0.808E-02  0.303E-03  0.249E-02  0.249E-02  0.303E-03  0.249E-02
  22.895  0.803E-02  0.296E-03  0.248E-02  0.248E-02  0.296E-03  0.248E-02
  22.915  0.798E-02  0.289E-03  0.247E-02  0.247E-02  0.289E-03  0.247E-02
  22.935  0.791E-02  0.282E-03  0.245E-02  0.245E-02  0.282E-03  0.245E-02
  22.955  0.783E-02  0.274E-03  0.243E-02  0.243E-02  0.274E-03  0.243E-02
  22.975  0.774E-02  0.266E-03  0.240E-02  0.240E-02  0.266E-03  0.240E-02
  22.995  0.763E-02  0.257E-03  0.237E-02  0.237E-02  0.257E-03  0.237E-02
  23.015  0.750E-02  0.248E-03  0.234E-02  0.234E-02  0.248E-03  0.234E-02
  23.035  0.736E-02  0.239E-03  0.229E-02  0.229E-02  0.239E-03  0.229E-02
  23.055  0.721E-02  0.230E-03  0.225E-02  0.225E-02  0.230E-03  0.225E-02
  23.075  0.704E-02  0.221E-03  0.220E-02  0.220E-02  0.221E-03  0.220E-02
  23.095  0.686E-02  0.212E-03  0.214E-02  0.214E-02  0.212E-03  0.214E-02
  23.115  0.666E-02  0.203E-03  0.209E-02  0.209E-02  0.203E-03  0.209E-02
  23.135  0.646E-02  0.194E-03  0.202E-02  0.202E-02  0.194E-03  0.202E-02
  23.155  0.624E-02  0.185E-03  0.196E-02  0.196E-02  0.185E-03  0.196E-02
  23.175  0.602E-02  0.177E-03  0.189E-02  0.189E-02  0.177E-03  0.189E-02
  23.195  0.579E-02  0.169E-03  0.182E-02  0.182E-02  0.169E-03  0.182E-02
  23.215  0.556E-02  0.161E-03  0.175E-02  0.175E-02  0.161E-03  0.175E-02
  23.235  0.533E-02  0.154E-03  0.167E-02  0.167E-02  0.154E-03  0.167E-02
  23.255  0.509E-02  0.147E-03  0.160E-02  0.160E-02  0.147E-03  0.160E-02
  23.275  0.486E-02  0.140E-03  0.153E-02  0.153E-02  0.140E-03  0.153E-02
  23.295  0.463E-02  0.134E-03  0.145E-02  0.145E-02  0.134E-03  0.145E-02
  23.315  0.441E-02  0.129E-03  0.138E-02  0.138E-02  0.129E-03  0.138E-02
  23.335  0.419E-02  0.124E-03  0.131E-02  0.131E-02  0.124E-03  0.131E-02
  23.355  0.398E-02  0.120E-03  0.125E-02  0.125E-02  0.120E-03  0.125E-02
  23.375  0.379E-02  0.116E-03  0.119E-02  0.119E-02  0.116E-03  0.119E-02
  23.395  0.360E-02  0.113E-03  0.113E-02  0.113E-02  0.113E-03  0.113E-02
  23.415  0.343E-02  0.110E-03  0.107E-02  0.107E-02  0.110E-03  0.107E-02
  23.435  0.326E-02  0.108E-03  0.102E-02  0.102E-02  0.108E-03  0.102E-02
  23.455  0.312E-02  0.106E-03  0.968E-03  0.968E-03  0.106E-03  0.968E-03
  23.475  0.298E-02  0.104E-03  0.924E-03  0.924E-03  0.104E-03  0.924E-03
  23.495  0.286E-02  0.103E-03  0.884E-03  0.884E-03  0.103E-03  0.884E-03
  23.515  0.275E-02  0.102E-03  0.848E-03  0.848E-03  0.102E-03  0.848E-03
  23.535  0.265E-02  0.101E-03  0.817E-03  0.817E-03  0.101E-03  0.817E-03
  23.555  0.257E-02  0.100E-03  0.789E-03  0.789E-03  0.100E-03  0.789E-03
  23.575  0.249E-02  0.999E-04  0.765E-03  0.765E-03  0.999E-04  0.765E-03
  23.595  0.243E-02  0.994E-04  0.744E-03  0.744E-03  0.994E-04  0.744E-03
  23.615  0.238E-02  0.988E-04  0.726E-03  0.726E-03  0.988E-04  0.726E-03
  23.635  0.233E-02  0.982E-04  0.711E-03  0.711E-03  0.982E-04  0.711E-03
  23.655  0.229E-02  0.974E-04  0.699E-03  0.699E-03  0.974E-04  0.699E-03
  23.675  0.226E-02  0.965E-04  0.688E-03  0.688E-03  0.965E-04  0.688E-03
  23.695  0.223E-02  0.954E-04  0.680E-03  0.680E-03  0.954E-04  0.680E-03
  23.715  0.221E-02  0.941E-04  0.672E-03  0.672E-03  0.941E-04  0.672E-03
  23.735  0.218E-02  0.925E-04  0.666E-03  0.666E-03  0.925E-04  0.666E-03
  23.755  0.216E-02  0.907E-04  0.660E-03  0.660E-03  0.907E-04  0.660E-03
  23.775  0.214E-02  0.886E-04  0.655E-03  0.655E-03  0.886E-04  0.655E-03
  23.795  0.212E-02  0.863E-04  0.649E-03  0.649E-03  0.863E-04  0.649E-03
  23.815  0.210E-02  0.837E-04  0.643E-03  0.643E-03  0.837E-04  0.643E-03
  23.835  0.207E-02  0.809E-04  0.637E-03  0.637E-03  0.809E-04  0.637E-03
  23.855  0.204E-02  0.778E-04  0.630E-03  0.630E-03  0.778E-04  0.630E-03
  23.875  0.201E-02  0.745E-04  0.621E-03  0.621E-03  0.745E-04  0.621E-03
  23.895  0.198E-02  0.711E-04  0.612E-03  0.612E-03  0.711E-04  0.612E-03
  23.915  0.194E-02  0.676E-04  0.601E-03  0.601E-03  0.676E-04  0.601E-03
  23.935  0.190E-02  0.639E-04  0.589E-03  0.589E-03  0.639E-04  0.589E-03
  23.955  0.185E-02  0.602E-04  0.576E-03  0.576E-03  0.602E-04  0.576E-03
  23.975  0.180E-02  0.564E-04  0.561E-03  0.561E-03  0.564E-04  0.561E-03
  23.995  0.174E-02  0.526E-04  0.545E-03  0.545E-03  0.526E-04  0.545E-03
  24.015  0.168E-02  0.489E-04  0.528E-03  0.528E-03  0.489E-04  0.528E-03
  24.035  0.162E-02  0.452E-04  0.509E-03  0.509E-03  0.452E-04  0.509E-03
  24.055  0.155E-02  0.416E-04  0.489E-03  0.489E-03  0.416E-04  0.489E-03
  24.075  0.148E-02  0.381E-04  0.468E-03  0.468E-03  0.381E-04  0.468E-03
  24.095  0.141E-02  0.347E-04  0.447E-03  0.447E-03  0.347E-04  0.447E-03
  24.115  0.134E-02  0.315E-04  0.424E-03  0.424E-03  0.315E-04  0.424E-03
  24.135  0.126E-02  0.284E-04  0.402E-03  0.402E-03  0.284E-04  0.402E-03
  24.155  0.119E-02  0.256E-04  0.379E-03  0.379E-03  0.256E-04  0.379E-03
  24.175  0.111E-02  0.229E-04  0.356E-03  0.356E-03  0.229E-04  0.356E-03
  24.195  0.104E-02  0.204E-04  0.332E-03  0.332E-03  0.204E-04  0.332E-03
  24.215  0.965E-03  0.180E-04  0.309E-03  0.309E-03  0.180E-04  0.309E-03
  24.235  0.893E-03  0.159E-04  0.287E-03  0.287E-03  0.159E-04  0.287E-03
  24.255  0.823E-03  0.140E-04  0.265E-03  0.265E-03  0.140E-04  0.265E-03
  24.275  0.755E-03  0.122E-04  0.244E-03  0.244E-03  0.122E-04  0.244E-03
  24.295  0.690E-03  0.106E-04  0.223E-03  0.223E-03  0.106E-04  0.223E-03
  24.315  0.628E-03  0.916E-05  0.203E-03  0.203E-03  0.916E-05  0.203E-03
  24.335  0.569E-03  0.789E-05  0.184E-03  0.184E-03  0.789E-05  0.184E-03
  24.355  0.513E-03  0.676E-05  0.166E-03  0.166E-03  0.676E-05  0.166E-03
  24.375  0.461E-03  0.576E-05  0.150E-03  0.150E-03  0.576E-05  0.150E-03
  24.395  0.412E-03  0.489E-05  0.134E-03  0.134E-03  0.489E-05  0.134E-03
  24.415  0.367E-03  0.413E-05  0.120E-03  0.120E-03  0.413E-05  0.120E-03
  24.435  0.325E-03  0.347E-05  0.106E-03  0.106E-03  0.347E-05  0.106E-03
  24.455  0.287E-03  0.291E-05  0.937E-04  0.937E-04  0.291E-05  0.937E-04
  24.475  0.252E-03  0.242E-05  0.824E-04  0.824E-04  0.242E-05  0.824E-04
  24.495  0.220E-03  0.200E-05  0.721E-04  0.721E-04  0.200E-05  0.721E-04
  24.515  0.192E-03  0.165E-05  0.629E-04  0.629E-04  0.165E-05  0.629E-04
  24.535  0.166E-03  0.136E-05  0.545E-04  0.545E-04  0.136E-05  0.545E-04
  24.555  0.143E-03  0.111E-05  0.471E-04  0.471E-04  0.111E-05  0.471E-04
  24.575  0.123E-03  0.900E-06  0.405E-04  0.405E-04  0.900E-06  0.405E-04
  24.595  0.105E-03  0.728E-06  0.346E-04  0.346E-04  0.728E-06  0.346E-04
  24.615  0.897E-04  0.586E-06  0.295E-04  0.295E-04  0.586E-06  0.295E-04
  24.635  0.760E-04  0.470E-06  0.250E-04  0.250E-04  0.470E-06  0.250E-04
  24.655  0.641E-04  0.374E-06  0.211E-04  0.211E-04  0.374E-06  0.211E-04
  24.675  0.538E-04  0.297E-06  0.177E-04  0.177E-04  0.297E-06  0.177E-04
  24.695  0.449E-04  0.235E-06  0.148E-04  0.148E-04  0.235E-06  0.148E-04
  24.715  0.374E-04  0.184E-06  0.123E-04  0.123E-04  0.184E-06  0.123E-04
  24.735  0.309E-04  0.144E-06  0.102E-04  0.102E-04  0.144E-06  0.102E-04
  24.755  0.255E-04  0.112E-06  0.842E-05  0.842E-05  0.112E-06  0.842E-05
  24.775  0.209E-04  0.870E-07  0.691E-05  0.691E-05  0.870E-07  0.691E-05
  24.795  0.171E-04  0.671E-07  0.565E-05  0.565E-05  0.671E-07  0.565E-05
  24.815  0.139E-04  0.514E-07  0.459E-05  0.459E-05  0.514E-07  0.459E-05
  24.835  0.112E-04  0.393E-07  0.371E-05  0.371E-05  0.393E-07  0.371E-05
  24.855  0.903E-05  0.299E-07  0.299E-05  0.299E-05  0.299E-07  0.299E-05
  24.875  0.724E-05  0.226E-07  0.240E-05  0.240E-05  0.226E-07  0.240E-05
  24.895  0.577E-05  0.170E-07  0.191E-05  0.191E-05  0.170E-07  0.191E-05
  24.915  0.458E-05  0.127E-07  0.152E-05  0.152E-05  0.127E-07  0.152E-05
  24.935  0.362E-05  0.949E-08  0.120E-05  0.120E-05  0.949E-08  0.120E-05
  24.955  0.285E-05  0.704E-08  0.944E-06  0.944E-06  0.704E-08  0.944E-06
  24.975  0.223E-05  0.520E-08  0.739E-06  0.739E-06  0.520E-08  0.739E-06
  24.995  0.173E-05  0.382E-08  0.576E-06  0.576E-06  0.382E-08  0.576E-06
  25.015  0.134E-05  0.279E-08  0.446E-06  0.446E-06  0.279E-08  0.446E-06
  25.035  0.104E-05  0.203E-08  0.344E-06  0.344E-06  0.203E-08  0.344E-06
  25.055  0.797E-06  0.147E-08  0.265E-06  0.265E-06  0.147E-08  0.265E-06
  25.075  0.609E-06  0.106E-08  0.202E-06  0.202E-06  0.106E-08  0.202E-06
  25.095  0.463E-06  0.762E-09  0.154E-06  0.154E-06  0.762E-09  0.154E-06
  25.115  0.351E-06  0.544E-09  0.117E-06  0.117E-06  0.544E-09  0.117E-06
  25.135  0.264E-06  0.386E-09  0.878E-07  0.878E-07  0.386E-09  0.878E-07
  25.155  0.198E-06  0.273E-09  0.659E-07  0.659E-07  0.273E-09  0.659E-07
  25.175  0.148E-06  0.192E-09  0.492E-07  0.492E-07  0.192E-09  0.492E-07
