# E (eV)   ldos(E)   pdos(E)   
  -4.265  0.730E-06  0.730E-06
  -4.245  0.993E-06  0.993E-06
  -4.225  0.135E-05  0.135E-05
  -4.205  0.181E-05  0.181E-05
  -4.185  0.243E-05  0.243E-05
  -4.165  0.325E-05  0.325E-05
  -4.145  0.433E-05  0.433E-05
  -4.125  0.573E-05  0.573E-05
  -4.105  0.756E-05  0.756E-05
  -4.085  0.992E-05  0.992E-05
  -4.065  0.130E-04  0.130E-04
  -4.045  0.169E-04  0.169E-04
  -4.025  0.218E-04  0.218E-04
  -4.005  0.282E-04  0.282E-04
  -3.985  0.362E-04  0.362E-04
  -3.965  0.462E-04  0.462E-04
  -3.945  0.588E-04  0.588E-04
  -3.925  0.746E-04  0.746E-04
  -3.905  0.941E-04  0.941E-04
  -3.885  0.118E-03  0.118E-03
  -3.865  0.148E-03  0.148E-03
  -3.845  0.184E-03  0.184E-03
  -3.825  0.228E-03  0.228E-03
  -3.805  0.282E-03  0.282E-03
  -3.785  0.347E-03  0.347E-03
  -3.765  0.424E-03  0.424E-03
  -3.745  0.517E-03  0.517E-03
  -3.725  0.628E-03  0.628E-03
  -3.705  0.759E-03  0.759E-03
  -3.685  0.914E-03  0.914E-03
  -3.665  0.110E-02  0.110E-02
  -3.645  0.131E-02  0.131E-02
  -3.625  0.155E-02  0.155E-02
  -3.605  0.184E-02  0.184E-02
  -3.585  0.217E-02  0.217E-02
  -3.565  0.255E-02  0.255E-02
  -3.545  0.298E-02  0.298E-02
  -3.525  0.347E-02  0.347E-02
  -3.505  0.403E-02  0.403E-02
  -3.485  0.466E-02  0.466E-02
  -3.465  0.536E-02  0.536E-02
  -3.445  0.615E-02  0.615E-02
  -3.425  0.702E-02  0.702E-02
  -3.405  0.799E-02  0.799E-02
  -3.385  0.906E-02  0.906E-02
  -3.365  0.102E-01  0.102E-01
  -3.345  0.115E-01  0.115E-01
  -3.325  0.129E-01  0.129E-01
  -3.305  0.144E-01  0.144E-01
  -3.285  0.160E-01  0.160E-01
  -3.265  0.178E-01  0.178E-01
  -3.245  0.197E-01  0.197E-01
  -3.225  0.216E-01  0.216E-01
  -3.205  0.237E-01  0.237E-01
  -3.185  0.260E-01  0.260E-01
  -3.165  0.283E-01  0.283E-01
  -3.145  0.307E-01  0.307E-01
  -3.125  0.333E-01  0.333E-01
  -3.105  0.359E-01  0.359E-01
  -3.085  0.386E-01  0.386E-01
  -3.065  0.414E-01  0.414E-01
  -3.045  0.443E-01  0.443E-01
  -3.025  0.472E-01  0.472E-01
  -3.005  0.502E-01  0.502E-01
  -2.985  0.532E-01  0.532E-01
  -2.965  0.562E-01  0.562E-01
  -2.945  0.592E-01  0.592E-01
  -2.925  0.623E-01  0.623E-01
  -2.905  0.653E-01  0.653E-01
  -2.885  0.682E-01  0.682E-01
  -2.865  0.712E-01  0.712E-01
  -2.845  0.741E-01  0.741E-01
  -2.825  0.769E-01  0.769E-01
  -2.805  0.797E-01  0.797E-01
  -2.785  0.823E-01  0.823E-01
  -2.765  0.849E-01  0.849E-01
  -2.745  0.874E-01  0.874E-01
  -2.725  0.898E-01  0.898E-01
  -2.705  0.920E-01  0.920E-01
  -2.685  0.942E-01  0.942E-01
  -2.665  0.962E-01  0.962E-01
  -2.645  0.981E-01  0.981E-01
  -2.625  0.999E-01  0.999E-01
  -2.605  0.102E+00  0.102E+00
  -2.585  0.103E+00  0.103E+00
  -2.565  0.104E+00  0.104E+00
  -2.545  0.106E+00  0.106E+00
  -2.525  0.107E+00  0.107E+00
  -2.505  0.108E+00  0.108E+00
  -2.485  0.109E+00  0.109E+00
  -2.465  0.110E+00  0.110E+00
  -2.445  0.110E+00  0.110E+00
  -2.425  0.111E+00  0.111E+00
  -2.405  0.111E+00  0.111E+00
  -2.385  0.112E+00  0.112E+00
  -2.365  0.112E+00  0.112E+00
  -2.345  0.112E+00  0.112E+00
  -2.325  0.112E+00  0.112E+00
  -2.305  0.112E+00  0.112E+00
  -2.285  0.112E+00  0.112E+00
  -2.265  0.112E+00  0.112E+00
  -2.245  0.111E+00  0.111E+00
  -2.225  0.111E+00  0.111E+00
  -2.205  0.111E+00  0.111E+00
  -2.185  0.110E+00  0.110E+00
  -2.165  0.110E+00  0.110E+00
  -2.145  0.109E+00  0.109E+00
  -2.125  0.109E+00  0.109E+00
  -2.105  0.108E+00  0.108E+00
  -2.085  0.107E+00  0.107E+00
  -2.065  0.107E+00  0.107E+00
  -2.045  0.106E+00  0.106E+00
  -2.025  0.105E+00  0.105E+00
  -2.005  0.104E+00  0.104E+00
  -1.985  0.103E+00  0.103E+00
  -1.965  0.102E+00  0.102E+00
  -1.945  0.102E+00  0.102E+00
  -1.925  0.101E+00  0.101E+00
  -1.905  0.996E-01  0.996E-01
  -1.885  0.986E-01  0.986E-01
  -1.865  0.976E-01  0.976E-01
  -1.845  0.966E-01  0.966E-01
  -1.825  0.955E-01  0.955E-01
  -1.805  0.945E-01  0.945E-01
  -1.785  0.934E-01  0.934E-01
  -1.765  0.923E-01  0.923E-01
  -1.745  0.912E-01  0.912E-01
  -1.725  0.901E-01  0.901E-01
  -1.705  0.890E-01  0.890E-01
  -1.685  0.879E-01  0.879E-01
  -1.665  0.868E-01  0.868E-01
  -1.645  0.856E-01  0.856E-01
  -1.625  0.845E-01  0.845E-01
  -1.605  0.834E-01  0.834E-01
  -1.585  0.822E-01  0.822E-01
  -1.565  0.811E-01  0.811E-01
  -1.545  0.800E-01  0.800E-01
  -1.525  0.788E-01  0.788E-01
  -1.505  0.777E-01  0.777E-01
  -1.485  0.766E-01  0.766E-01
  -1.465  0.755E-01  0.755E-01
  -1.445  0.744E-01  0.744E-01
  -1.425  0.733E-01  0.733E-01
  -1.405  0.722E-01  0.722E-01
  -1.385  0.711E-01  0.711E-01
  -1.365  0.701E-01  0.701E-01
  -1.345  0.690E-01  0.690E-01
  -1.325  0.679E-01  0.679E-01
  -1.305  0.669E-01  0.669E-01
  -1.285  0.659E-01  0.659E-01
  -1.265  0.649E-01  0.649E-01
  -1.245  0.639E-01  0.639E-01
  -1.225  0.629E-01  0.629E-01
  -1.205  0.619E-01  0.619E-01
  -1.185  0.609E-01  0.609E-01
  -1.165  0.600E-01  0.600E-01
  -1.145  0.590E-01  0.590E-01
  -1.125  0.581E-01  0.581E-01
  -1.105  0.572E-01  0.572E-01
  -1.085  0.563E-01  0.563E-01
  -1.065  0.554E-01  0.554E-01
  -1.045  0.545E-01  0.545E-01
  -1.025  0.536E-01  0.536E-01
  -1.005  0.528E-01  0.528E-01
  -0.985  0.520E-01  0.520E-01
  -0.965  0.511E-01  0.511E-01
  -0.945  0.503E-01  0.503E-01
  -0.925  0.495E-01  0.495E-01
  -0.905  0.487E-01  0.487E-01
  -0.885  0.480E-01  0.480E-01
  -0.865  0.472E-01  0.472E-01
  -0.845  0.465E-01  0.465E-01
  -0.825  0.457E-01  0.457E-01
  -0.805  0.450E-01  0.450E-01
  -0.785  0.443E-01  0.443E-01
  -0.765  0.436E-01  0.436E-01
  -0.745  0.429E-01  0.429E-01
  -0.725  0.423E-01  0.423E-01
  -0.705  0.416E-01  0.416E-01
  -0.685  0.410E-01  0.410E-01
  -0.665  0.403E-01  0.403E-01
  -0.645  0.397E-01  0.397E-01
  -0.625  0.391E-01  0.391E-01
  -0.605  0.385E-01  0.385E-01
  -0.585  0.378E-01  0.378E-01
  -0.565  0.372E-01  0.372E-01
  -0.545  0.366E-01  0.366E-01
  -0.525  0.361E-01  0.361E-01
  -0.505  0.355E-01  0.355E-01
  -0.485  0.349E-01  0.349E-01
  -0.465  0.343E-01  0.343E-01
  -0.445  0.338E-01  0.338E-01
  -0.425  0.332E-01  0.332E-01
  -0.405  0.327E-01  0.327E-01
  -0.385  0.321E-01  0.321E-01
  -0.365  0.316E-01  0.316E-01
  -0.345  0.310E-01  0.310E-01
  -0.325  0.305E-01  0.305E-01
  -0.305  0.300E-01  0.300E-01
  -0.285  0.295E-01  0.295E-01
  -0.265  0.290E-01  0.290E-01
  -0.245  0.285E-01  0.285E-01
  -0.225  0.281E-01  0.281E-01
  -0.205  0.276E-01  0.276E-01
  -0.185  0.271E-01  0.271E-01
  -0.165  0.267E-01  0.267E-01
  -0.145  0.262E-01  0.262E-01
  -0.125  0.258E-01  0.258E-01
  -0.105  0.253E-01  0.253E-01
  -0.085  0.249E-01  0.249E-01
  -0.065  0.244E-01  0.244E-01
  -0.045  0.240E-01  0.240E-01
  -0.025  0.236E-01  0.236E-01
  -0.005  0.231E-01  0.231E-01
   0.015  0.227E-01  0.227E-01
   0.035  0.223E-01  0.223E-01
   0.055  0.219E-01  0.219E-01
   0.075  0.214E-01  0.214E-01
   0.095  0.210E-01  0.210E-01
   0.115  0.206E-01  0.206E-01
   0.135  0.202E-01  0.202E-01
   0.155  0.198E-01  0.198E-01
   0.175  0.193E-01  0.193E-01
   0.195  0.189E-01  0.189E-01
   0.215  0.186E-01  0.186E-01
   0.235  0.182E-01  0.182E-01
   0.255  0.178E-01  0.178E-01
   0.275  0.174E-01  0.174E-01
   0.295  0.171E-01  0.171E-01
   0.315  0.167E-01  0.167E-01
   0.335  0.164E-01  0.164E-01
   0.355  0.160E-01  0.160E-01
   0.375  0.157E-01  0.157E-01
   0.395  0.154E-01  0.154E-01
   0.415  0.151E-01  0.151E-01
   0.435  0.148E-01  0.148E-01
   0.455  0.145E-01  0.145E-01
   0.475  0.142E-01  0.142E-01
   0.495  0.140E-01  0.140E-01
   0.515  0.137E-01  0.137E-01
   0.535  0.134E-01  0.134E-01
   0.555  0.132E-01  0.132E-01
   0.575  0.129E-01  0.129E-01
   0.595  0.126E-01  0.126E-01
   0.615  0.124E-01  0.124E-01
   0.635  0.121E-01  0.121E-01
   0.655  0.119E-01  0.119E-01
   0.675  0.116E-01  0.116E-01
   0.695  0.114E-01  0.114E-01
   0.715  0.111E-01  0.111E-01
   0.735  0.109E-01  0.109E-01
   0.755  0.106E-01  0.106E-01
   0.775  0.104E-01  0.104E-01
   0.795  0.101E-01  0.101E-01
   0.815  0.991E-02  0.991E-02
   0.835  0.969E-02  0.969E-02
   0.855  0.947E-02  0.947E-02
   0.875  0.927E-02  0.927E-02
   0.895  0.907E-02  0.907E-02
   0.915  0.888E-02  0.888E-02
   0.935  0.871E-02  0.871E-02
   0.955  0.854E-02  0.854E-02
   0.975  0.838E-02  0.838E-02
   0.995  0.823E-02  0.823E-02
   1.015  0.810E-02  0.810E-02
   1.035  0.797E-02  0.797E-02
   1.055  0.784E-02  0.784E-02
   1.075  0.773E-02  0.773E-02
   1.095  0.762E-02  0.762E-02
   1.115  0.751E-02  0.751E-02
   1.135  0.741E-02  0.741E-02
   1.155  0.732E-02  0.732E-02
   1.175  0.722E-02  0.722E-02
   1.195  0.713E-02  0.713E-02
   1.215  0.704E-02  0.704E-02
   1.235  0.694E-02  0.694E-02
   1.255  0.685E-02  0.685E-02
   1.275  0.675E-02  0.675E-02
   1.295  0.666E-02  0.666E-02
   1.315  0.656E-02  0.656E-02
   1.335  0.646E-02  0.646E-02
   1.355  0.637E-02  0.637E-02
   1.375  0.627E-02  0.627E-02
   1.395  0.618E-02  0.618E-02
   1.415  0.609E-02  0.609E-02
   1.435  0.600E-02  0.600E-02
   1.455  0.592E-02  0.592E-02
   1.475  0.584E-02  0.584E-02
   1.495  0.577E-02  0.577E-02
   1.515  0.571E-02  0.571E-02
   1.535  0.565E-02  0.565E-02
   1.555  0.561E-02  0.561E-02
   1.575  0.557E-02  0.557E-02
   1.595  0.554E-02  0.554E-02
   1.615  0.552E-02  0.552E-02
   1.635  0.550E-02  0.550E-02
   1.655  0.550E-02  0.550E-02
   1.675  0.550E-02  0.550E-02
   1.695  0.551E-02  0.551E-02
   1.715  0.552E-02  0.552E-02
   1.735  0.554E-02  0.554E-02
   1.755  0.555E-02  0.555E-02
   1.775  0.557E-02  0.557E-02
   1.795  0.559E-02  0.559E-02
   1.815  0.561E-02  0.561E-02
   1.835  0.563E-02  0.563E-02
   1.855  0.564E-02  0.564E-02
   1.875  0.565E-02  0.565E-02
   1.895  0.565E-02  0.565E-02
   1.915  0.565E-02  0.565E-02
   1.935  0.564E-02  0.564E-02
   1.955  0.563E-02  0.563E-02
   1.975  0.561E-02  0.561E-02
   1.995  0.559E-02  0.559E-02
   2.015  0.556E-02  0.556E-02
   2.035  0.554E-02  0.554E-02
   2.055  0.551E-02  0.551E-02
   2.075  0.548E-02  0.548E-02
   2.095  0.546E-02  0.546E-02
   2.115  0.544E-02  0.544E-02
   2.135  0.543E-02  0.543E-02
   2.155  0.543E-02  0.543E-02
   2.175  0.543E-02  0.543E-02
   2.195  0.544E-02  0.544E-02
   2.215  0.547E-02  0.547E-02
   2.235  0.551E-02  0.551E-02
   2.255  0.556E-02  0.556E-02
   2.275  0.562E-02  0.562E-02
   2.295  0.569E-02  0.569E-02
   2.315  0.578E-02  0.578E-02
   2.335  0.588E-02  0.588E-02
   2.355  0.598E-02  0.598E-02
   2.375  0.610E-02  0.610E-02
   2.395  0.622E-02  0.622E-02
   2.415  0.634E-02  0.634E-02
   2.435  0.646E-02  0.646E-02
   2.455  0.659E-02  0.659E-02
   2.475  0.671E-02  0.671E-02
   2.495  0.682E-02  0.682E-02
   2.515  0.693E-02  0.693E-02
   2.535  0.703E-02  0.703E-02
   2.555  0.711E-02  0.711E-02
   2.575  0.719E-02  0.719E-02
   2.595  0.725E-02  0.725E-02
   2.615  0.729E-02  0.729E-02
   2.635  0.733E-02  0.733E-02
   2.655  0.734E-02  0.734E-02
   2.675  0.735E-02  0.735E-02
   2.695  0.734E-02  0.734E-02
   2.715  0.732E-02  0.732E-02
   2.735  0.730E-02  0.730E-02
   2.755  0.727E-02  0.727E-02
   2.775  0.723E-02  0.723E-02
   2.795  0.720E-02  0.720E-02
   2.815  0.717E-02  0.717E-02
   2.835  0.715E-02  0.715E-02
   2.855  0.714E-02  0.714E-02
   2.875  0.715E-02  0.715E-02
   2.895  0.717E-02  0.717E-02
   2.915  0.722E-02  0.722E-02
   2.935  0.729E-02  0.729E-02
   2.955  0.739E-02  0.739E-02
   2.975  0.752E-02  0.752E-02
   2.995  0.768E-02  0.768E-02
   3.015  0.788E-02  0.788E-02
   3.035  0.811E-02  0.811E-02
   3.055  0.838E-02  0.838E-02
   3.075  0.869E-02  0.869E-02
   3.095  0.904E-02  0.904E-02
   3.115  0.942E-02  0.942E-02
   3.135  0.985E-02  0.985E-02
   3.155  0.103E-01  0.103E-01
   3.175  0.108E-01  0.108E-01
   3.195  0.114E-01  0.114E-01
   3.215  0.120E-01  0.120E-01
   3.235  0.126E-01  0.126E-01
   3.255  0.133E-01  0.133E-01
   3.275  0.140E-01  0.140E-01
   3.295  0.148E-01  0.148E-01
   3.315  0.157E-01  0.157E-01
   3.335  0.166E-01  0.166E-01
   3.355  0.176E-01  0.176E-01
   3.375  0.187E-01  0.187E-01
   3.395  0.198E-01  0.198E-01
   3.415  0.211E-01  0.211E-01
   3.435  0.224E-01  0.224E-01
   3.455  0.239E-01  0.239E-01
   3.475  0.254E-01  0.254E-01
   3.495  0.271E-01  0.271E-01
   3.515  0.290E-01  0.290E-01
   3.535  0.309E-01  0.309E-01
   3.555  0.330E-01  0.330E-01
   3.575  0.353E-01  0.353E-01
   3.595  0.377E-01  0.377E-01
   3.615  0.403E-01  0.403E-01
   3.635  0.431E-01  0.431E-01
   3.655  0.460E-01  0.460E-01
   3.675  0.490E-01  0.490E-01
   3.695  0.522E-01  0.522E-01
   3.715  0.556E-01  0.556E-01
   3.735  0.591E-01  0.591E-01
   3.755  0.627E-01  0.627E-01
   3.775  0.664E-01  0.664E-01
   3.795  0.702E-01  0.702E-01
   3.815  0.741E-01  0.741E-01
   3.835  0.781E-01  0.781E-01
   3.855  0.821E-01  0.821E-01
   3.875  0.861E-01  0.861E-01
   3.895  0.901E-01  0.901E-01
   3.915  0.942E-01  0.942E-01
   3.935  0.982E-01  0.982E-01
   3.955  0.102E+00  0.102E+00
   3.975  0.106E+00  0.106E+00
   3.995  0.110E+00  0.110E+00
   4.015  0.113E+00  0.113E+00
   4.035  0.117E+00  0.117E+00
   4.055  0.120E+00  0.120E+00
   4.075  0.124E+00  0.124E+00
   4.095  0.127E+00  0.127E+00
   4.115  0.130E+00  0.130E+00
   4.135  0.133E+00  0.133E+00
   4.155  0.135E+00  0.135E+00
   4.175  0.138E+00  0.138E+00
   4.195  0.140E+00  0.140E+00
   4.215  0.142E+00  0.142E+00
   4.235  0.144E+00  0.144E+00
   4.255  0.146E+00  0.146E+00
   4.275  0.147E+00  0.147E+00
   4.295  0.149E+00  0.149E+00
   4.315  0.150E+00  0.150E+00
   4.335  0.151E+00  0.151E+00
   4.355  0.152E+00  0.152E+00
   4.375  0.153E+00  0.153E+00
   4.395  0.153E+00  0.153E+00
   4.415  0.154E+00  0.154E+00
   4.435  0.154E+00  0.154E+00
   4.455  0.154E+00  0.154E+00
   4.475  0.154E+00  0.154E+00
   4.495  0.154E+00  0.154E+00
   4.515  0.154E+00  0.154E+00
   4.535  0.154E+00  0.154E+00
   4.555  0.154E+00  0.154E+00
   4.575  0.153E+00  0.153E+00
   4.595  0.153E+00  0.153E+00
   4.615  0.152E+00  0.152E+00
   4.635  0.152E+00  0.152E+00
   4.655  0.151E+00  0.151E+00
   4.675  0.150E+00  0.150E+00
   4.695  0.149E+00  0.149E+00
   4.715  0.148E+00  0.148E+00
   4.735  0.147E+00  0.147E+00
   4.755  0.146E+00  0.146E+00
   4.775  0.145E+00  0.145E+00
   4.795  0.144E+00  0.144E+00
   4.815  0.142E+00  0.142E+00
   4.835  0.141E+00  0.141E+00
   4.855  0.140E+00  0.140E+00
   4.875  0.138E+00  0.138E+00
   4.895  0.137E+00  0.137E+00
   4.915  0.135E+00  0.135E+00
   4.935  0.133E+00  0.133E+00
   4.955  0.132E+00  0.132E+00
   4.975  0.130E+00  0.130E+00
   4.995  0.129E+00  0.129E+00
   5.015  0.127E+00  0.127E+00
   5.035  0.125E+00  0.125E+00
   5.055  0.124E+00  0.124E+00
   5.075  0.122E+00  0.122E+00
   5.095  0.121E+00  0.121E+00
   5.115  0.119E+00  0.119E+00
   5.135  0.118E+00  0.118E+00
   5.155  0.116E+00  0.116E+00
   5.175  0.115E+00  0.115E+00
   5.195  0.113E+00  0.113E+00
   5.215  0.112E+00  0.112E+00
   5.235  0.110E+00  0.110E+00
   5.255  0.108E+00  0.108E+00
   5.275  0.107E+00  0.107E+00
   5.295  0.105E+00  0.105E+00
   5.315  0.104E+00  0.104E+00
   5.335  0.102E+00  0.102E+00
   5.355  0.101E+00  0.101E+00
   5.375  0.993E-01  0.993E-01
   5.395  0.977E-01  0.977E-01
   5.415  0.962E-01  0.962E-01
   5.435  0.946E-01  0.946E-01
   5.455  0.931E-01  0.931E-01
   5.475  0.916E-01  0.916E-01
   5.495  0.902E-01  0.902E-01
   5.515  0.888E-01  0.888E-01
   5.535  0.874E-01  0.874E-01
   5.555  0.861E-01  0.861E-01
   5.575  0.849E-01  0.849E-01
   5.595  0.837E-01  0.837E-01
   5.615  0.826E-01  0.826E-01
   5.635  0.816E-01  0.816E-01
   5.655  0.807E-01  0.807E-01
   5.675  0.798E-01  0.798E-01
   5.695  0.790E-01  0.790E-01
   5.715  0.784E-01  0.784E-01
   5.735  0.777E-01  0.777E-01
   5.755  0.772E-01  0.772E-01
   5.775  0.767E-01  0.767E-01
   5.795  0.762E-01  0.762E-01
   5.815  0.758E-01  0.758E-01
   5.835  0.755E-01  0.755E-01
   5.855  0.751E-01  0.751E-01
   5.875  0.749E-01  0.749E-01
   5.895  0.746E-01  0.746E-01
   5.915  0.744E-01  0.744E-01
   5.935  0.742E-01  0.742E-01
   5.955  0.741E-01  0.741E-01
   5.975  0.740E-01  0.740E-01
   5.995  0.739E-01  0.739E-01
   6.015  0.739E-01  0.739E-01
   6.035  0.740E-01  0.740E-01
   6.055  0.741E-01  0.741E-01
   6.075  0.744E-01  0.744E-01
   6.095  0.747E-01  0.747E-01
   6.115  0.751E-01  0.751E-01
   6.135  0.757E-01  0.757E-01
   6.155  0.763E-01  0.763E-01
   6.175  0.771E-01  0.771E-01
   6.195  0.781E-01  0.781E-01
   6.215  0.792E-01  0.792E-01
   6.235  0.805E-01  0.805E-01
   6.255  0.820E-01  0.820E-01
   6.275  0.836E-01  0.836E-01
   6.295  0.853E-01  0.853E-01
   6.315  0.872E-01  0.872E-01
   6.335  0.893E-01  0.893E-01
   6.355  0.915E-01  0.915E-01
   6.375  0.938E-01  0.938E-01
   6.395  0.963E-01  0.963E-01
   6.415  0.988E-01  0.988E-01
   6.435  0.101E+00  0.101E+00
   6.455  0.104E+00  0.104E+00
   6.475  0.107E+00  0.107E+00
   6.495  0.110E+00  0.110E+00
   6.515  0.113E+00  0.113E+00
   6.535  0.115E+00  0.115E+00
   6.555  0.118E+00  0.118E+00
   6.575  0.121E+00  0.121E+00
   6.595  0.124E+00  0.124E+00
   6.615  0.127E+00  0.127E+00
   6.635  0.129E+00  0.129E+00
   6.655  0.132E+00  0.132E+00
   6.675  0.135E+00  0.135E+00
   6.695  0.137E+00  0.137E+00
   6.715  0.140E+00  0.140E+00
   6.735  0.142E+00  0.142E+00
   6.755  0.144E+00  0.144E+00
   6.775  0.146E+00  0.146E+00
   6.795  0.149E+00  0.149E+00
   6.815  0.150E+00  0.150E+00
   6.835  0.152E+00  0.152E+00
   6.855  0.154E+00  0.154E+00
   6.875  0.156E+00  0.156E+00
   6.895  0.157E+00  0.157E+00
   6.915  0.158E+00  0.158E+00
   6.935  0.160E+00  0.160E+00
   6.955  0.161E+00  0.161E+00
   6.975  0.161E+00  0.161E+00
   6.995  0.162E+00  0.162E+00
   7.015  0.163E+00  0.163E+00
   7.035  0.163E+00  0.163E+00
   7.055  0.163E+00  0.163E+00
   7.075  0.163E+00  0.163E+00
   7.095  0.163E+00  0.163E+00
   7.115  0.162E+00  0.162E+00
   7.135  0.162E+00  0.162E+00
   7.155  0.161E+00  0.161E+00
   7.175  0.160E+00  0.160E+00
   7.195  0.159E+00  0.159E+00
   7.215  0.157E+00  0.157E+00
   7.235  0.156E+00  0.156E+00
   7.255  0.154E+00  0.154E+00
   7.275  0.152E+00  0.152E+00
   7.295  0.151E+00  0.151E+00
   7.315  0.149E+00  0.149E+00
   7.335  0.146E+00  0.146E+00
   7.355  0.144E+00  0.144E+00
   7.375  0.142E+00  0.142E+00
   7.395  0.140E+00  0.140E+00
   7.415  0.137E+00  0.137E+00
   7.435  0.135E+00  0.135E+00
   7.455  0.133E+00  0.133E+00
   7.475  0.130E+00  0.130E+00
   7.495  0.128E+00  0.128E+00
   7.515  0.126E+00  0.126E+00
   7.535  0.124E+00  0.124E+00
   7.555  0.121E+00  0.121E+00
   7.575  0.119E+00  0.119E+00
   7.595  0.117E+00  0.117E+00
   7.615  0.115E+00  0.115E+00
   7.635  0.113E+00  0.113E+00
   7.655  0.112E+00  0.112E+00
   7.675  0.110E+00  0.110E+00
   7.695  0.108E+00  0.108E+00
   7.715  0.106E+00  0.106E+00
   7.735  0.105E+00  0.105E+00
   7.755  0.103E+00  0.103E+00
   7.775  0.101E+00  0.101E+00
   7.795  0.998E-01  0.998E-01
   7.815  0.983E-01  0.983E-01
   7.835  0.967E-01  0.967E-01
   7.855  0.952E-01  0.952E-01
   7.875  0.937E-01  0.937E-01
   7.895  0.922E-01  0.922E-01
   7.915  0.907E-01  0.907E-01
   7.935  0.891E-01  0.891E-01
   7.955  0.876E-01  0.876E-01
   7.975  0.860E-01  0.860E-01
   7.995  0.845E-01  0.845E-01
   8.015  0.829E-01  0.829E-01
   8.035  0.812E-01  0.812E-01
   8.055  0.796E-01  0.796E-01
   8.075  0.780E-01  0.780E-01
   8.095  0.763E-01  0.763E-01
   8.115  0.747E-01  0.747E-01
   8.135  0.730E-01  0.730E-01
   8.155  0.713E-01  0.713E-01
   8.175  0.696E-01  0.696E-01
   8.195  0.680E-01  0.680E-01
   8.215  0.663E-01  0.663E-01
   8.235  0.647E-01  0.647E-01
   8.255  0.631E-01  0.631E-01
   8.275  0.615E-01  0.615E-01
   8.295  0.600E-01  0.600E-01
   8.315  0.584E-01  0.584E-01
   8.335  0.570E-01  0.570E-01
   8.355  0.555E-01  0.555E-01
   8.375  0.541E-01  0.541E-01
   8.395  0.528E-01  0.528E-01
   8.415  0.515E-01  0.515E-01
   8.435  0.502E-01  0.502E-01
   8.455  0.490E-01  0.490E-01
   8.475  0.479E-01  0.479E-01
   8.495  0.468E-01  0.468E-01
   8.515  0.458E-01  0.458E-01
   8.535  0.448E-01  0.448E-01
   8.555  0.439E-01  0.439E-01
   8.575  0.431E-01  0.431E-01
   8.595  0.423E-01  0.423E-01
   8.615  0.416E-01  0.416E-01
   8.635  0.409E-01  0.409E-01
   8.655  0.404E-01  0.404E-01
   8.675  0.398E-01  0.398E-01
   8.695  0.394E-01  0.394E-01
   8.715  0.390E-01  0.390E-01
   8.735  0.387E-01  0.387E-01
   8.755  0.385E-01  0.385E-01
   8.775  0.384E-01  0.384E-01
   8.795  0.383E-01  0.383E-01
   8.815  0.383E-01  0.383E-01
   8.835  0.384E-01  0.384E-01
   8.855  0.385E-01  0.385E-01
   8.875  0.388E-01  0.388E-01
   8.895  0.391E-01  0.391E-01
   8.915  0.395E-01  0.395E-01
   8.935  0.399E-01  0.399E-01
   8.955  0.405E-01  0.405E-01
   8.975  0.411E-01  0.411E-01
   8.995  0.417E-01  0.417E-01
   9.015  0.424E-01  0.424E-01
   9.035  0.432E-01  0.432E-01
   9.055  0.440E-01  0.440E-01
   9.075  0.449E-01  0.449E-01
   9.095  0.458E-01  0.458E-01
   9.115  0.467E-01  0.467E-01
   9.135  0.477E-01  0.477E-01
   9.155  0.486E-01  0.486E-01
   9.175  0.496E-01  0.496E-01
   9.195  0.505E-01  0.505E-01
   9.215  0.515E-01  0.515E-01
   9.235  0.524E-01  0.524E-01
   9.255  0.533E-01  0.533E-01
   9.275  0.542E-01  0.542E-01
   9.295  0.550E-01  0.550E-01
   9.315  0.558E-01  0.558E-01
   9.335  0.565E-01  0.565E-01
   9.355  0.571E-01  0.571E-01
   9.375  0.577E-01  0.577E-01
   9.395  0.582E-01  0.582E-01
   9.415  0.587E-01  0.587E-01
   9.435  0.590E-01  0.590E-01
   9.455  0.593E-01  0.593E-01
   9.475  0.595E-01  0.595E-01
   9.495  0.596E-01  0.596E-01
   9.515  0.597E-01  0.597E-01
   9.535  0.596E-01  0.596E-01
   9.555  0.595E-01  0.595E-01
   9.575  0.593E-01  0.593E-01
   9.595  0.590E-01  0.590E-01
   9.615  0.586E-01  0.586E-01
   9.635  0.582E-01  0.582E-01
   9.655  0.577E-01  0.577E-01
   9.675  0.572E-01  0.572E-01
   9.695  0.566E-01  0.566E-01
   9.715  0.559E-01  0.559E-01
   9.735  0.552E-01  0.552E-01
   9.755  0.545E-01  0.545E-01
   9.775  0.537E-01  0.537E-01
   9.795  0.529E-01  0.529E-01
   9.815  0.521E-01  0.521E-01
   9.835  0.513E-01  0.513E-01
   9.855  0.504E-01  0.504E-01
   9.875  0.496E-01  0.496E-01
   9.895  0.488E-01  0.488E-01
   9.915  0.480E-01  0.480E-01
   9.935  0.472E-01  0.472E-01
   9.955  0.464E-01  0.464E-01
   9.975  0.456E-01  0.456E-01
   9.995  0.448E-01  0.448E-01
  10.015  0.441E-01  0.441E-01
  10.035  0.433E-01  0.433E-01
  10.055  0.426E-01  0.426E-01
  10.075  0.419E-01  0.419E-01
  10.095  0.412E-01  0.412E-01
  10.115  0.405E-01  0.405E-01
  10.135  0.399E-01  0.399E-01
  10.155  0.392E-01  0.392E-01
  10.175  0.386E-01  0.386E-01
  10.195  0.379E-01  0.379E-01
  10.215  0.373E-01  0.373E-01
  10.235  0.366E-01  0.366E-01
  10.255  0.360E-01  0.360E-01
  10.275  0.353E-01  0.353E-01
  10.295  0.347E-01  0.347E-01
  10.315  0.340E-01  0.340E-01
  10.335  0.334E-01  0.334E-01
  10.355  0.327E-01  0.327E-01
  10.375  0.320E-01  0.320E-01
  10.395  0.314E-01  0.314E-01
  10.415  0.307E-01  0.307E-01
  10.435  0.300E-01  0.300E-01
  10.455  0.294E-01  0.294E-01
  10.475  0.287E-01  0.287E-01
  10.495  0.281E-01  0.281E-01
  10.515  0.274E-01  0.274E-01
  10.535  0.268E-01  0.268E-01
  10.555  0.262E-01  0.262E-01
  10.575  0.256E-01  0.256E-01
  10.595  0.251E-01  0.251E-01
  10.615  0.245E-01  0.245E-01
  10.635  0.240E-01  0.240E-01
  10.655  0.235E-01  0.235E-01
  10.675  0.231E-01  0.231E-01
  10.695  0.226E-01  0.226E-01
  10.715  0.222E-01  0.222E-01
  10.735  0.218E-01  0.218E-01
  10.755  0.215E-01  0.215E-01
  10.775  0.211E-01  0.211E-01
  10.795  0.208E-01  0.208E-01
  10.815  0.205E-01  0.205E-01
  10.835  0.202E-01  0.202E-01
  10.855  0.199E-01  0.199E-01
  10.875  0.197E-01  0.197E-01
  10.895  0.194E-01  0.194E-01
  10.915  0.192E-01  0.192E-01
  10.935  0.189E-01  0.189E-01
  10.955  0.187E-01  0.187E-01
  10.975  0.185E-01  0.185E-01
  10.995  0.182E-01  0.182E-01
  11.015  0.180E-01  0.180E-01
  11.035  0.177E-01  0.177E-01
  11.055  0.174E-01  0.174E-01
  11.075  0.172E-01  0.172E-01
  11.095  0.169E-01  0.169E-01
  11.115  0.166E-01  0.166E-01
  11.135  0.163E-01  0.163E-01
  11.155  0.160E-01  0.160E-01
  11.175  0.157E-01  0.157E-01
  11.195  0.154E-01  0.154E-01
  11.215  0.150E-01  0.150E-01
  11.235  0.147E-01  0.147E-01
  11.255  0.144E-01  0.144E-01
  11.275  0.141E-01  0.141E-01
  11.295  0.137E-01  0.137E-01
  11.315  0.134E-01  0.134E-01
  11.335  0.131E-01  0.131E-01
  11.355  0.129E-01  0.129E-01
  11.375  0.126E-01  0.126E-01
  11.395  0.123E-01  0.123E-01
  11.415  0.121E-01  0.121E-01
  11.435  0.119E-01  0.119E-01
  11.455  0.117E-01  0.117E-01
  11.475  0.116E-01  0.116E-01
  11.495  0.114E-01  0.114E-01
  11.515  0.113E-01  0.113E-01
  11.535  0.113E-01  0.113E-01
  11.555  0.113E-01  0.113E-01
  11.575  0.113E-01  0.113E-01
  11.595  0.113E-01  0.113E-01
  11.615  0.113E-01  0.113E-01
  11.635  0.114E-01  0.114E-01
  11.655  0.116E-01  0.116E-01
  11.675  0.117E-01  0.117E-01
  11.695  0.119E-01  0.119E-01
  11.715  0.121E-01  0.121E-01
  11.735  0.123E-01  0.123E-01
  11.755  0.125E-01  0.125E-01
  11.775  0.128E-01  0.128E-01
  11.795  0.131E-01  0.131E-01
  11.815  0.133E-01  0.133E-01
  11.835  0.136E-01  0.136E-01
  11.855  0.139E-01  0.139E-01
  11.875  0.142E-01  0.142E-01
  11.895  0.146E-01  0.146E-01
  11.915  0.149E-01  0.149E-01
  11.935  0.152E-01  0.152E-01
  11.955  0.155E-01  0.155E-01
  11.975  0.159E-01  0.159E-01
  11.995  0.162E-01  0.162E-01
  12.015  0.165E-01  0.165E-01
  12.035  0.169E-01  0.169E-01
  12.055  0.172E-01  0.172E-01
  12.075  0.175E-01  0.175E-01
  12.095  0.179E-01  0.179E-01
  12.115  0.182E-01  0.182E-01
  12.135  0.186E-01  0.186E-01
  12.155  0.190E-01  0.190E-01
  12.175  0.193E-01  0.193E-01
  12.195  0.197E-01  0.197E-01
  12.215  0.201E-01  0.201E-01
  12.235  0.205E-01  0.205E-01
  12.255  0.209E-01  0.209E-01
  12.275  0.214E-01  0.214E-01
  12.295  0.218E-01  0.218E-01
  12.315  0.223E-01  0.223E-01
  12.335  0.227E-01  0.227E-01
  12.355  0.232E-01  0.232E-01
  12.375  0.236E-01  0.236E-01
  12.395  0.241E-01  0.241E-01
  12.415  0.246E-01  0.246E-01
  12.435  0.250E-01  0.250E-01
  12.455  0.255E-01  0.255E-01
  12.475  0.260E-01  0.260E-01
  12.495  0.264E-01  0.264E-01
  12.515  0.269E-01  0.269E-01
  12.535  0.273E-01  0.273E-01
  12.555  0.278E-01  0.278E-01
  12.575  0.282E-01  0.282E-01
  12.595  0.286E-01  0.286E-01
  12.615  0.290E-01  0.290E-01
  12.635  0.293E-01  0.293E-01
  12.655  0.297E-01  0.297E-01
  12.675  0.300E-01  0.300E-01
  12.695  0.304E-01  0.304E-01
  12.715  0.307E-01  0.307E-01
  12.735  0.310E-01  0.310E-01
  12.755  0.312E-01  0.312E-01
  12.775  0.315E-01  0.315E-01
  12.795  0.317E-01  0.317E-01
  12.815  0.320E-01  0.320E-01
  12.835  0.322E-01  0.322E-01
  12.855  0.324E-01  0.324E-01
  12.875  0.326E-01  0.326E-01
  12.895  0.328E-01  0.328E-01
  12.915  0.330E-01  0.330E-01
  12.935  0.332E-01  0.332E-01
  12.955  0.333E-01  0.333E-01
  12.975  0.335E-01  0.335E-01
  12.995  0.337E-01  0.337E-01
  13.015  0.339E-01  0.339E-01
  13.035  0.340E-01  0.340E-01
  13.055  0.342E-01  0.342E-01
  13.075  0.344E-01  0.344E-01
  13.095  0.346E-01  0.346E-01
  13.115  0.347E-01  0.347E-01
  13.135  0.349E-01  0.349E-01
  13.155  0.350E-01  0.350E-01
  13.175  0.352E-01  0.352E-01
  13.195  0.353E-01  0.353E-01
  13.215  0.354E-01  0.354E-01
  13.235  0.355E-01  0.355E-01
  13.255  0.355E-01  0.355E-01
  13.275  0.356E-01  0.356E-01
  13.295  0.356E-01  0.356E-01
  13.315  0.356E-01  0.356E-01
  13.335  0.355E-01  0.355E-01
  13.355  0.354E-01  0.354E-01
  13.375  0.352E-01  0.352E-01
  13.395  0.350E-01  0.350E-01
  13.415  0.348E-01  0.348E-01
  13.435  0.345E-01  0.345E-01
  13.455  0.342E-01  0.342E-01
  13.475  0.338E-01  0.338E-01
  13.495  0.334E-01  0.334E-01
  13.515  0.329E-01  0.329E-01
  13.535  0.323E-01  0.323E-01
  13.555  0.318E-01  0.318E-01
  13.575  0.312E-01  0.312E-01
  13.595  0.305E-01  0.305E-01
  13.615  0.298E-01  0.298E-01
  13.635  0.291E-01  0.291E-01
  13.655  0.283E-01  0.283E-01
  13.675  0.275E-01  0.275E-01
  13.695  0.268E-01  0.268E-01
  13.715  0.259E-01  0.259E-01
  13.735  0.251E-01  0.251E-01
  13.755  0.243E-01  0.243E-01
  13.775  0.235E-01  0.235E-01
  13.795  0.227E-01  0.227E-01
  13.815  0.219E-01  0.219E-01
  13.835  0.211E-01  0.211E-01
  13.855  0.204E-01  0.204E-01
  13.875  0.196E-01  0.196E-01
  13.895  0.189E-01  0.189E-01
  13.915  0.183E-01  0.183E-01
  13.935  0.176E-01  0.176E-01
  13.955  0.170E-01  0.170E-01
  13.975  0.165E-01  0.165E-01
  13.995  0.159E-01  0.159E-01
  14.015  0.154E-01  0.154E-01
  14.035  0.150E-01  0.150E-01
  14.055  0.145E-01  0.145E-01
  14.075  0.141E-01  0.141E-01
  14.095  0.137E-01  0.137E-01
  14.115  0.134E-01  0.134E-01
  14.135  0.131E-01  0.131E-01
  14.155  0.128E-01  0.128E-01
  14.175  0.125E-01  0.125E-01
  14.195  0.122E-01  0.122E-01
  14.215  0.119E-01  0.119E-01
  14.235  0.117E-01  0.117E-01
  14.255  0.114E-01  0.114E-01
  14.275  0.112E-01  0.112E-01
  14.295  0.109E-01  0.109E-01
  14.315  0.106E-01  0.106E-01
  14.335  0.104E-01  0.104E-01
  14.355  0.101E-01  0.101E-01
  14.375  0.983E-02  0.983E-02
  14.395  0.955E-02  0.955E-02
  14.415  0.926E-02  0.926E-02
  14.435  0.896E-02  0.896E-02
  14.455  0.866E-02  0.866E-02
  14.475  0.835E-02  0.835E-02
  14.495  0.804E-02  0.804E-02
  14.515  0.773E-02  0.773E-02
  14.535  0.741E-02  0.741E-02
  14.555  0.709E-02  0.709E-02
  14.575  0.678E-02  0.678E-02
  14.595  0.647E-02  0.647E-02
  14.615  0.617E-02  0.617E-02
  14.635  0.587E-02  0.587E-02
  14.655  0.558E-02  0.558E-02
  14.675  0.531E-02  0.531E-02
  14.695  0.504E-02  0.504E-02
  14.715  0.479E-02  0.479E-02
  14.735  0.454E-02  0.454E-02
  14.755  0.432E-02  0.432E-02
  14.775  0.410E-02  0.410E-02
  14.795  0.390E-02  0.390E-02
  14.815  0.372E-02  0.372E-02
  14.835  0.354E-02  0.354E-02
  14.855  0.339E-02  0.339E-02
  14.875  0.324E-02  0.324E-02
  14.895  0.311E-02  0.311E-02
  14.915  0.299E-02  0.299E-02
  14.935  0.288E-02  0.288E-02
  14.955  0.279E-02  0.279E-02
  14.975  0.270E-02  0.270E-02
  14.995  0.262E-02  0.262E-02
  15.015  0.255E-02  0.255E-02
  15.035  0.249E-02  0.249E-02
  15.055  0.244E-02  0.244E-02
  15.075  0.239E-02  0.239E-02
  15.095  0.235E-02  0.235E-02
  15.115  0.231E-02  0.231E-02
  15.135  0.228E-02  0.228E-02
  15.155  0.225E-02  0.225E-02
  15.175  0.223E-02  0.223E-02
  15.195  0.220E-02  0.220E-02
  15.215  0.218E-02  0.218E-02
  15.235  0.217E-02  0.217E-02
  15.255  0.215E-02  0.215E-02
  15.275  0.214E-02  0.214E-02
  15.295  0.212E-02  0.212E-02
  15.315  0.211E-02  0.211E-02
  15.335  0.210E-02  0.210E-02
  15.355  0.210E-02  0.210E-02
  15.375  0.209E-02  0.209E-02
  15.395  0.208E-02  0.208E-02
  15.415  0.208E-02  0.208E-02
  15.435  0.207E-02  0.207E-02
  15.455  0.207E-02  0.207E-02
  15.475  0.207E-02  0.207E-02
  15.495  0.207E-02  0.207E-02
  15.515  0.207E-02  0.207E-02
  15.535  0.207E-02  0.207E-02
  15.555  0.207E-02  0.207E-02
  15.575  0.208E-02  0.208E-02
  15.595  0.209E-02  0.209E-02
  15.615  0.210E-02  0.210E-02
  15.635  0.211E-02  0.211E-02
  15.655  0.213E-02  0.213E-02
  15.675  0.215E-02  0.215E-02
  15.695  0.217E-02  0.217E-02
  15.715  0.220E-02  0.220E-02
  15.735  0.223E-02  0.223E-02
  15.755  0.227E-02  0.227E-02
  15.775  0.231E-02  0.231E-02
  15.795  0.236E-02  0.236E-02
  15.815  0.241E-02  0.241E-02
  15.835  0.247E-02  0.247E-02
  15.855  0.254E-02  0.254E-02
  15.875  0.261E-02  0.261E-02
  15.895  0.269E-02  0.269E-02
  15.915  0.278E-02  0.278E-02
  15.935  0.287E-02  0.287E-02
  15.955  0.297E-02  0.297E-02
  15.975  0.307E-02  0.307E-02
  15.995  0.318E-02  0.318E-02
  16.015  0.330E-02  0.330E-02
  16.035  0.341E-02  0.341E-02
  16.055  0.353E-02  0.353E-02
  16.075  0.366E-02  0.366E-02
  16.095  0.378E-02  0.378E-02
  16.115  0.390E-02  0.390E-02
  16.135  0.402E-02  0.402E-02
  16.155  0.414E-02  0.414E-02
  16.175  0.426E-02  0.426E-02
  16.195  0.437E-02  0.437E-02
  16.215  0.447E-02  0.447E-02
  16.235  0.457E-02  0.457E-02
  16.255  0.466E-02  0.466E-02
  16.275  0.473E-02  0.473E-02
  16.295  0.480E-02  0.480E-02
  16.315  0.486E-02  0.486E-02
  16.335  0.490E-02  0.490E-02
  16.355  0.494E-02  0.494E-02
  16.375  0.496E-02  0.496E-02
  16.395  0.497E-02  0.497E-02
  16.415  0.497E-02  0.497E-02
  16.435  0.495E-02  0.495E-02
  16.455  0.493E-02  0.493E-02
  16.475  0.490E-02  0.490E-02
  16.495  0.485E-02  0.485E-02
  16.515  0.480E-02  0.480E-02
  16.535  0.474E-02  0.474E-02
  16.555  0.468E-02  0.468E-02
  16.575  0.461E-02  0.461E-02
  16.595  0.453E-02  0.453E-02
  16.615  0.446E-02  0.446E-02
  16.635  0.438E-02  0.438E-02
  16.655  0.430E-02  0.430E-02
  16.675  0.423E-02  0.423E-02
  16.695  0.415E-02  0.415E-02
  16.715  0.408E-02  0.408E-02
  16.735  0.402E-02  0.402E-02
  16.755  0.395E-02  0.395E-02
  16.775  0.390E-02  0.390E-02
  16.795  0.384E-02  0.384E-02
  16.815  0.380E-02  0.380E-02
  16.835  0.376E-02  0.376E-02
  16.855  0.372E-02  0.372E-02
  16.875  0.369E-02  0.369E-02
  16.895  0.367E-02  0.367E-02
  16.915  0.365E-02  0.365E-02
  16.935  0.363E-02  0.363E-02
  16.955  0.362E-02  0.362E-02
  16.975  0.361E-02  0.361E-02
  16.995  0.360E-02  0.360E-02
  17.015  0.359E-02  0.359E-02
  17.035  0.358E-02  0.358E-02
  17.055  0.358E-02  0.358E-02
  17.075  0.357E-02  0.357E-02
  17.095  0.356E-02  0.356E-02
  17.115  0.355E-02  0.355E-02
  17.135  0.354E-02  0.354E-02
  17.155  0.353E-02  0.353E-02
  17.175  0.351E-02  0.351E-02
  17.195  0.349E-02  0.349E-02
  17.215  0.347E-02  0.347E-02
  17.235  0.345E-02  0.345E-02
  17.255  0.342E-02  0.342E-02
  17.275  0.339E-02  0.339E-02
  17.295  0.336E-02  0.336E-02
  17.315  0.332E-02  0.332E-02
  17.335  0.329E-02  0.329E-02
  17.355  0.325E-02  0.325E-02
  17.375  0.320E-02  0.320E-02
  17.395  0.316E-02  0.316E-02
  17.415  0.312E-02  0.312E-02
  17.435  0.307E-02  0.307E-02
  17.455  0.302E-02  0.302E-02
  17.475  0.297E-02  0.297E-02
  17.495  0.292E-02  0.292E-02
  17.515  0.287E-02  0.287E-02
  17.535  0.282E-02  0.282E-02
  17.555  0.277E-02  0.277E-02
  17.575  0.272E-02  0.272E-02
  17.595  0.267E-02  0.267E-02
  17.615  0.262E-02  0.262E-02
  17.635  0.257E-02  0.257E-02
  17.655  0.252E-02  0.252E-02
  17.675  0.247E-02  0.247E-02
  17.695  0.242E-02  0.242E-02
  17.715  0.237E-02  0.237E-02
  17.735  0.232E-02  0.232E-02
  17.755  0.227E-02  0.227E-02
  17.775  0.222E-02  0.222E-02
  17.795  0.218E-02  0.218E-02
  17.815  0.213E-02  0.213E-02
  17.835  0.209E-02  0.209E-02
  17.855  0.204E-02  0.204E-02
  17.875  0.200E-02  0.200E-02
  17.895  0.197E-02  0.197E-02
  17.915  0.193E-02  0.193E-02
  17.935  0.189E-02  0.189E-02
  17.955  0.186E-02  0.186E-02
  17.975  0.183E-02  0.183E-02
  17.995  0.180E-02  0.180E-02
  18.015  0.177E-02  0.177E-02
  18.035  0.175E-02  0.175E-02
  18.055  0.172E-02  0.172E-02
  18.075  0.170E-02  0.170E-02
  18.095  0.168E-02  0.168E-02
  18.115  0.166E-02  0.166E-02
  18.135  0.164E-02  0.164E-02
  18.155  0.162E-02  0.162E-02
  18.175  0.160E-02  0.160E-02
  18.195  0.158E-02  0.158E-02
  18.215  0.156E-02  0.156E-02
  18.235  0.153E-02  0.153E-02
  18.255  0.151E-02  0.151E-02
  18.275  0.149E-02  0.149E-02
  18.295  0.146E-02  0.146E-02
  18.315  0.143E-02  0.143E-02
  18.335  0.140E-02  0.140E-02
  18.355  0.137E-02  0.137E-02
  18.375  0.134E-02  0.134E-02
  18.395  0.130E-02  0.130E-02
  18.415  0.127E-02  0.127E-02
  18.435  0.123E-02  0.123E-02
  18.455  0.119E-02  0.119E-02
  18.475  0.115E-02  0.115E-02
  18.495  0.111E-02  0.111E-02
  18.515  0.107E-02  0.107E-02
  18.535  0.103E-02  0.103E-02
  18.555  0.986E-03  0.986E-03
  18.575  0.945E-03  0.945E-03
  18.595  0.905E-03  0.905E-03
  18.615  0.866E-03  0.866E-03
  18.635  0.828E-03  0.828E-03
  18.655  0.791E-03  0.791E-03
  18.675  0.756E-03  0.756E-03
  18.695  0.723E-03  0.723E-03
  18.715  0.692E-03  0.692E-03
  18.735  0.662E-03  0.662E-03
  18.755  0.635E-03  0.635E-03
  18.775  0.610E-03  0.610E-03
  18.795  0.586E-03  0.586E-03
  18.815  0.565E-03  0.565E-03
  18.835  0.545E-03  0.545E-03
  18.855  0.528E-03  0.528E-03
  18.875  0.511E-03  0.511E-03
  18.895  0.497E-03  0.497E-03
  18.915  0.484E-03  0.484E-03
  18.935  0.472E-03  0.472E-03
  18.955  0.461E-03  0.461E-03
  18.975  0.452E-03  0.452E-03
  18.995  0.443E-03  0.443E-03
  19.015  0.435E-03  0.435E-03
  19.035  0.427E-03  0.427E-03
  19.055  0.420E-03  0.420E-03
  19.075  0.414E-03  0.414E-03
  19.095  0.407E-03  0.407E-03
  19.115  0.401E-03  0.401E-03
  19.135  0.396E-03  0.396E-03
  19.155  0.390E-03  0.390E-03
  19.175  0.385E-03  0.385E-03
  19.195  0.380E-03  0.380E-03
  19.215  0.376E-03  0.376E-03
  19.235  0.371E-03  0.371E-03
  19.255  0.367E-03  0.367E-03
  19.275  0.363E-03  0.363E-03
  19.295  0.359E-03  0.359E-03
  19.315  0.356E-03  0.356E-03
  19.335  0.353E-03  0.353E-03
  19.355  0.350E-03  0.350E-03
  19.375  0.348E-03  0.348E-03
  19.395  0.346E-03  0.346E-03
  19.415  0.344E-03  0.344E-03
  19.435  0.342E-03  0.342E-03
  19.455  0.341E-03  0.341E-03
  19.475  0.340E-03  0.340E-03
  19.495  0.339E-03  0.339E-03
  19.515  0.338E-03  0.338E-03
  19.535  0.337E-03  0.337E-03
  19.555  0.336E-03  0.336E-03
  19.575  0.335E-03  0.335E-03
  19.595  0.334E-03  0.334E-03
  19.615  0.332E-03  0.332E-03
  19.635  0.331E-03  0.331E-03
  19.655  0.328E-03  0.328E-03
  19.675  0.326E-03  0.326E-03
  19.695  0.323E-03  0.323E-03
  19.715  0.320E-03  0.320E-03
  19.735  0.316E-03  0.316E-03
  19.755  0.312E-03  0.312E-03
  19.775  0.307E-03  0.307E-03
  19.795  0.303E-03  0.303E-03
  19.815  0.297E-03  0.297E-03
  19.835  0.292E-03  0.292E-03
  19.855  0.287E-03  0.287E-03
  19.875  0.281E-03  0.281E-03
  19.895  0.276E-03  0.276E-03
  19.915  0.271E-03  0.271E-03
  19.935  0.266E-03  0.266E-03
  19.955  0.261E-03  0.261E-03
  19.975  0.257E-03  0.257E-03
  19.995  0.253E-03  0.253E-03
  20.015  0.249E-03  0.249E-03
  20.035  0.246E-03  0.246E-03
  20.055  0.244E-03  0.244E-03
  20.075  0.242E-03  0.242E-03
  20.095  0.240E-03  0.240E-03
  20.115  0.240E-03  0.240E-03
  20.135  0.239E-03  0.239E-03
  20.155  0.240E-03  0.240E-03
  20.175  0.240E-03  0.240E-03
  20.195  0.242E-03  0.242E-03
  20.215  0.243E-03  0.243E-03
  20.235  0.245E-03  0.245E-03
  20.255  0.247E-03  0.247E-03
  20.275  0.249E-03  0.249E-03
  20.295  0.251E-03  0.251E-03
  20.315  0.254E-03  0.254E-03
  20.335  0.256E-03  0.256E-03
  20.355  0.258E-03  0.258E-03
  20.375  0.260E-03  0.260E-03
  20.395  0.261E-03  0.261E-03
  20.415  0.263E-03  0.263E-03
  20.435  0.264E-03  0.264E-03
  20.455  0.265E-03  0.265E-03
  20.475  0.265E-03  0.265E-03
  20.495  0.265E-03  0.265E-03
  20.515  0.265E-03  0.265E-03
  20.535  0.265E-03  0.265E-03
  20.555  0.264E-03  0.264E-03
  20.575  0.263E-03  0.263E-03
  20.595  0.262E-03  0.262E-03
  20.615  0.261E-03  0.261E-03
  20.635  0.260E-03  0.260E-03
  20.655  0.259E-03  0.259E-03
  20.675  0.258E-03  0.258E-03
  20.695  0.256E-03  0.256E-03
  20.715  0.255E-03  0.255E-03
  20.735  0.254E-03  0.254E-03
  20.755  0.254E-03  0.254E-03
  20.775  0.253E-03  0.253E-03
  20.795  0.252E-03  0.252E-03
  20.815  0.252E-03  0.252E-03
  20.835  0.252E-03  0.252E-03
  20.855  0.252E-03  0.252E-03
  20.875  0.252E-03  0.252E-03
  20.895  0.252E-03  0.252E-03
  20.915  0.252E-03  0.252E-03
  20.935  0.252E-03  0.252E-03
  20.955  0.251E-03  0.251E-03
  20.975  0.251E-03  0.251E-03
  20.995  0.250E-03  0.250E-03
  21.015  0.250E-03  0.250E-03
  21.035  0.248E-03  0.248E-03
  21.055  0.247E-03  0.247E-03
  21.075  0.245E-03  0.245E-03
  21.095  0.242E-03  0.242E-03
  21.115  0.239E-03  0.239E-03
  21.135  0.236E-03  0.236E-03
  21.155  0.232E-03  0.232E-03
  21.175  0.228E-03  0.228E-03
  21.195  0.223E-03  0.223E-03
  21.215  0.218E-03  0.218E-03
  21.235  0.212E-03  0.212E-03
  21.255  0.206E-03  0.206E-03
  21.275  0.200E-03  0.200E-03
  21.295  0.193E-03  0.193E-03
  21.315  0.187E-03  0.187E-03
  21.335  0.180E-03  0.180E-03
  21.355  0.173E-03  0.173E-03
  21.375  0.167E-03  0.167E-03
  21.395  0.160E-03  0.160E-03
  21.415  0.154E-03  0.154E-03
  21.435  0.148E-03  0.148E-03
  21.455  0.142E-03  0.142E-03
  21.475  0.137E-03  0.137E-03
  21.495  0.132E-03  0.132E-03
  21.515  0.127E-03  0.127E-03
  21.535  0.123E-03  0.123E-03
  21.555  0.120E-03  0.120E-03
  21.575  0.117E-03  0.117E-03
  21.595  0.114E-03  0.114E-03
  21.615  0.112E-03  0.112E-03
  21.635  0.110E-03  0.110E-03
  21.655  0.108E-03  0.108E-03
  21.675  0.107E-03  0.107E-03
  21.695  0.106E-03  0.106E-03
  21.715  0.105E-03  0.105E-03
  21.735  0.105E-03  0.105E-03
  21.755  0.104E-03  0.104E-03
  21.775  0.104E-03  0.104E-03
  21.795  0.103E-03  0.103E-03
  21.815  0.103E-03  0.103E-03
  21.835  0.102E-03  0.102E-03
  21.855  0.101E-03  0.101E-03
  21.875  0.100E-03  0.100E-03
  21.895  0.989E-04  0.989E-04
  21.915  0.974E-04  0.974E-04
  21.935  0.956E-04  0.956E-04
  21.955  0.935E-04  0.935E-04
  21.975  0.912E-04  0.912E-04
  21.995  0.886E-04  0.886E-04
  22.015  0.857E-04  0.857E-04
  22.035  0.826E-04  0.826E-04
  22.055  0.793E-04  0.793E-04
  22.075  0.759E-04  0.759E-04
  22.095  0.722E-04  0.722E-04
  22.115  0.685E-04  0.685E-04
  22.135  0.647E-04  0.647E-04
  22.155  0.608E-04  0.608E-04
  22.175  0.569E-04  0.569E-04
  22.195  0.531E-04  0.531E-04
  22.215  0.493E-04  0.493E-04
  22.235  0.455E-04  0.455E-04
  22.255  0.419E-04  0.419E-04
  22.275  0.384E-04  0.384E-04
  22.295  0.351E-04  0.351E-04
  22.315  0.320E-04  0.320E-04
  22.335  0.290E-04  0.290E-04
  22.355  0.262E-04  0.262E-04
  22.375  0.237E-04  0.237E-04
  22.395  0.213E-04  0.213E-04
  22.415  0.191E-04  0.191E-04
  22.435  0.172E-04  0.172E-04
  22.455  0.154E-04  0.154E-04
  22.475  0.138E-04  0.138E-04
  22.495  0.124E-04  0.124E-04
  22.515  0.112E-04  0.112E-04
  22.535  0.102E-04  0.102E-04
  22.555  0.927E-05  0.927E-05
  22.575  0.851E-05  0.851E-05
  22.595  0.787E-05  0.787E-05
  22.615  0.735E-05  0.735E-05
  22.635  0.693E-05  0.693E-05
  22.655  0.661E-05  0.661E-05
  22.675  0.636E-05  0.636E-05
  22.695  0.619E-05  0.619E-05
  22.715  0.607E-05  0.607E-05
  22.735  0.601E-05  0.601E-05
  22.755  0.598E-05  0.598E-05
  22.775  0.599E-05  0.599E-05
  22.795  0.602E-05  0.602E-05
  22.815  0.607E-05  0.607E-05
  22.835  0.613E-05  0.613E-05
  22.855  0.620E-05  0.620E-05
  22.875  0.627E-05  0.627E-05
  22.895  0.633E-05  0.633E-05
  22.915  0.639E-05  0.639E-05
  22.935  0.643E-05  0.643E-05
  22.955  0.646E-05  0.646E-05
  22.975  0.647E-05  0.647E-05
  22.995  0.646E-05  0.646E-05
  23.015  0.643E-05  0.643E-05
  23.035  0.639E-05  0.639E-05
  23.055  0.632E-05  0.632E-05
  23.075  0.623E-05  0.623E-05
  23.095  0.611E-05  0.611E-05
  23.115  0.598E-05  0.598E-05
  23.135  0.583E-05  0.583E-05
  23.155  0.566E-05  0.566E-05
  23.175  0.548E-05  0.548E-05
  23.195  0.528E-05  0.528E-05
  23.215  0.507E-05  0.507E-05
  23.235  0.485E-05  0.485E-05
  23.255  0.462E-05  0.462E-05
  23.275  0.439E-05  0.439E-05
  23.295  0.415E-05  0.415E-05
  23.315  0.391E-05  0.391E-05
  23.335  0.367E-05  0.367E-05
  23.355  0.343E-05  0.343E-05
  23.375  0.319E-05  0.319E-05
  23.395  0.296E-05  0.296E-05
  23.415  0.274E-05  0.274E-05
  23.435  0.252E-05  0.252E-05
  23.455  0.231E-05  0.231E-05
  23.475  0.211E-05  0.211E-05
  23.495  0.192E-05  0.192E-05
  23.515  0.174E-05  0.174E-05
  23.535  0.158E-05  0.158E-05
  23.555  0.142E-05  0.142E-05
  23.575  0.127E-05  0.127E-05
  23.595  0.114E-05  0.114E-05
  23.615  0.101E-05  0.101E-05
  23.635  0.897E-06  0.897E-06
  23.655  0.792E-06  0.792E-06
  23.675  0.697E-06  0.697E-06
  23.695  0.611E-06  0.611E-06
  23.715  0.534E-06  0.534E-06
  23.735  0.464E-06  0.464E-06
  23.755  0.402E-06  0.402E-06
  23.775  0.347E-06  0.347E-06
  23.795  0.299E-06  0.299E-06
  23.815  0.256E-06  0.256E-06
  23.835  0.218E-06  0.218E-06
  23.855  0.186E-06  0.186E-06
  23.875  0.157E-06  0.157E-06
  23.895  0.133E-06  0.133E-06
  23.915  0.111E-06  0.111E-06
  23.935  0.932E-07  0.932E-07
  23.955  0.776E-07  0.776E-07
  23.975  0.644E-07  0.644E-07
  23.995  0.533E-07  0.533E-07
  24.015  0.438E-07  0.438E-07
  24.035  0.359E-07  0.359E-07
  24.055  0.293E-07  0.293E-07
  24.075  0.238E-07  0.238E-07
  24.095  0.193E-07  0.193E-07
  24.115  0.156E-07  0.156E-07
  24.135  0.125E-07  0.125E-07
  24.155  0.998E-08  0.998E-08
  24.175  0.794E-08  0.794E-08
  24.195  0.629E-08  0.629E-08
  24.215  0.497E-08  0.497E-08
  24.235  0.390E-08  0.390E-08
  24.255  0.305E-08  0.305E-08
  24.275  0.238E-08  0.238E-08
  24.295  0.184E-08  0.184E-08
  24.315  0.142E-08  0.142E-08
  24.335  0.109E-08  0.109E-08
  24.355  0.835E-09  0.835E-09
  24.375  0.636E-09  0.636E-09
  24.395  0.482E-09  0.482E-09
  24.415  0.364E-09  0.364E-09
  24.435  0.273E-09  0.273E-09
  24.455  0.204E-09  0.204E-09
  24.475  0.152E-09  0.152E-09
  24.495  0.113E-09  0.113E-09
  24.515  0.832E-10  0.832E-10
  24.535  0.611E-10  0.611E-10
  24.555  0.446E-10  0.446E-10
  24.575  0.325E-10  0.325E-10
  24.595  0.235E-10  0.235E-10
  24.615  0.170E-10  0.170E-10
  24.635  0.122E-10  0.122E-10
  24.655  0.868E-11  0.868E-11
  24.675  0.617E-11  0.617E-11
  24.695  0.437E-11  0.437E-11
  24.715  0.308E-11  0.308E-11
  24.735  0.216E-11  0.216E-11
  24.755  0.150E-11  0.150E-11
  24.775  0.104E-11  0.104E-11
  24.795  0.722E-12  0.722E-12
  24.815  0.496E-12  0.496E-12
  24.835  0.340E-12  0.340E-12
  24.855  0.232E-12  0.232E-12
  24.875  0.157E-12  0.157E-12
  24.895  0.106E-12  0.106E-12
  24.915  0.713E-13  0.713E-13
  24.935  0.477E-13  0.477E-13
  24.955  0.317E-13  0.317E-13
  24.975  0.210E-13  0.210E-13
  24.995  0.139E-13  0.139E-13
  25.015  0.910E-14  0.910E-14
  25.035  0.595E-14  0.595E-14
  25.055  0.387E-14  0.387E-14
  25.075  0.248E-14  0.248E-14
  25.095  0.160E-14  0.160E-14
  25.115  0.103E-14  0.103E-14
  25.135  0.657E-15  0.657E-15
  25.155  0.418E-15  0.418E-15
  25.175  0.265E-15  0.265E-15
