# E (eV)   ldos(E)   pdos(E)    pdos(E)    pdos(E)   
  -4.265  0.102E-08  0.339E-09  0.339E-09  0.339E-09
  -4.245  0.141E-08  0.469E-09  0.469E-09  0.469E-09
  -4.225  0.193E-08  0.645E-09  0.645E-09  0.645E-09
  -4.205  0.265E-08  0.883E-09  0.883E-09  0.883E-09
  -4.185  0.361E-08  0.120E-08  0.120E-08  0.120E-08
  -4.165  0.490E-08  0.163E-08  0.163E-08  0.163E-08
  -4.145  0.663E-08  0.221E-08  0.221E-08  0.221E-08
  -4.125  0.892E-08  0.297E-08  0.297E-08  0.297E-08
  -4.105  0.120E-07  0.399E-08  0.399E-08  0.399E-08
  -4.085  0.160E-07  0.532E-08  0.532E-08  0.532E-08
  -4.065  0.212E-07  0.707E-08  0.707E-08  0.707E-08
  -4.045  0.281E-07  0.936E-08  0.936E-08  0.936E-08
  -4.025  0.370E-07  0.123E-07  0.123E-07  0.123E-07
  -4.005  0.486E-07  0.162E-07  0.162E-07  0.162E-07
  -3.985  0.635E-07  0.212E-07  0.212E-07  0.212E-07
  -3.965  0.826E-07  0.275E-07  0.275E-07  0.275E-07
  -3.945  0.107E-06  0.357E-07  0.357E-07  0.357E-07
  -3.925  0.138E-06  0.461E-07  0.461E-07  0.461E-07
  -3.905  0.178E-06  0.593E-07  0.593E-07  0.593E-07
  -3.885  0.228E-06  0.759E-07  0.759E-07  0.759E-07
  -3.865  0.290E-06  0.968E-07  0.968E-07  0.968E-07
  -3.845  0.369E-06  0.123E-06  0.123E-06  0.123E-06
  -3.825  0.467E-06  0.156E-06  0.156E-06  0.156E-06
  -3.805  0.588E-06  0.196E-06  0.196E-06  0.196E-06
  -3.785  0.738E-06  0.246E-06  0.246E-06  0.246E-06
  -3.765  0.922E-06  0.307E-06  0.307E-06  0.307E-06
  -3.745  0.115E-05  0.383E-06  0.383E-06  0.383E-06
  -3.725  0.142E-05  0.475E-06  0.475E-06  0.475E-06
  -3.705  0.176E-05  0.586E-06  0.586E-06  0.586E-06
  -3.685  0.216E-05  0.721E-06  0.721E-06  0.721E-06
  -3.665  0.265E-05  0.884E-06  0.884E-06  0.884E-06
  -3.645  0.324E-05  0.108E-05  0.108E-05  0.108E-05
  -3.625  0.394E-05  0.131E-05  0.131E-05  0.131E-05
  -3.605  0.478E-05  0.159E-05  0.159E-05  0.159E-05
  -3.585  0.577E-05  0.192E-05  0.192E-05  0.192E-05
  -3.565  0.694E-05  0.231E-05  0.231E-05  0.231E-05
  -3.545  0.831E-05  0.277E-05  0.277E-05  0.277E-05
  -3.525  0.993E-05  0.331E-05  0.331E-05  0.331E-05
  -3.505  0.118E-04  0.394E-05  0.394E-05  0.394E-05
  -3.485  0.140E-04  0.467E-05  0.467E-05  0.467E-05
  -3.465  0.165E-04  0.551E-05  0.551E-05  0.551E-05
  -3.445  0.195E-04  0.649E-05  0.649E-05  0.649E-05
  -3.425  0.228E-04  0.761E-05  0.761E-05  0.761E-05
  -3.405  0.267E-04  0.890E-05  0.890E-05  0.890E-05
  -3.385  0.311E-04  0.104E-04  0.104E-04  0.104E-04
  -3.365  0.361E-04  0.120E-04  0.120E-04  0.120E-04
  -3.345  0.418E-04  0.139E-04  0.139E-04  0.139E-04
  -3.325  0.482E-04  0.161E-04  0.161E-04  0.161E-04
  -3.305  0.554E-04  0.185E-04  0.185E-04  0.185E-04
  -3.285  0.635E-04  0.212E-04  0.212E-04  0.212E-04
  -3.265  0.725E-04  0.242E-04  0.242E-04  0.242E-04
  -3.245  0.825E-04  0.275E-04  0.275E-04  0.275E-04
  -3.225  0.937E-04  0.312E-04  0.312E-04  0.312E-04
  -3.205  0.106E-03  0.353E-04  0.353E-04  0.353E-04
  -3.185  0.120E-03  0.398E-04  0.398E-04  0.398E-04
  -3.165  0.134E-03  0.448E-04  0.448E-04  0.448E-04
  -3.145  0.151E-03  0.503E-04  0.503E-04  0.503E-04
  -3.125  0.169E-03  0.562E-04  0.562E-04  0.562E-04
  -3.105  0.188E-03  0.627E-04  0.627E-04  0.627E-04
  -3.085  0.209E-03  0.697E-04  0.697E-04  0.697E-04
  -3.065  0.232E-03  0.773E-04  0.773E-04  0.773E-04
  -3.045  0.256E-03  0.854E-04  0.854E-04  0.854E-04
  -3.025  0.283E-03  0.942E-04  0.942E-04  0.942E-04
  -3.005  0.311E-03  0.104E-03  0.104E-03  0.104E-03
  -2.985  0.341E-03  0.114E-03  0.114E-03  0.114E-03
  -2.965  0.374E-03  0.125E-03  0.125E-03  0.125E-03
  -2.945  0.408E-03  0.136E-03  0.136E-03  0.136E-03
  -2.925  0.444E-03  0.148E-03  0.148E-03  0.148E-03
  -2.905  0.483E-03  0.161E-03  0.161E-03  0.161E-03
  -2.885  0.523E-03  0.174E-03  0.174E-03  0.174E-03
  -2.865  0.566E-03  0.189E-03  0.189E-03  0.189E-03
  -2.845  0.611E-03  0.204E-03  0.204E-03  0.204E-03
  -2.825  0.659E-03  0.220E-03  0.220E-03  0.220E-03
  -2.805  0.708E-03  0.236E-03  0.236E-03  0.236E-03
  -2.785  0.759E-03  0.253E-03  0.253E-03  0.253E-03
  -2.765  0.813E-03  0.271E-03  0.271E-03  0.271E-03
  -2.745  0.869E-03  0.290E-03  0.290E-03  0.290E-03
  -2.725  0.927E-03  0.309E-03  0.309E-03  0.309E-03
  -2.705  0.987E-03  0.329E-03  0.329E-03  0.329E-03
  -2.685  0.105E-02  0.350E-03  0.350E-03  0.350E-03
  -2.665  0.111E-02  0.371E-03  0.371E-03  0.371E-03
  -2.645  0.118E-02  0.393E-03  0.393E-03  0.393E-03
  -2.625  0.125E-02  0.415E-03  0.415E-03  0.415E-03
  -2.605  0.132E-02  0.439E-03  0.439E-03  0.439E-03
  -2.585  0.139E-02  0.462E-03  0.462E-03  0.462E-03
  -2.565  0.146E-02  0.487E-03  0.487E-03  0.487E-03
  -2.545  0.154E-02  0.512E-03  0.512E-03  0.512E-03
  -2.525  0.161E-02  0.537E-03  0.537E-03  0.537E-03
  -2.505  0.169E-02  0.563E-03  0.563E-03  0.563E-03
  -2.485  0.177E-02  0.590E-03  0.590E-03  0.590E-03
  -2.465  0.185E-02  0.617E-03  0.617E-03  0.617E-03
  -2.445  0.193E-02  0.644E-03  0.644E-03  0.644E-03
  -2.425  0.202E-02  0.672E-03  0.672E-03  0.672E-03
  -2.405  0.210E-02  0.700E-03  0.700E-03  0.700E-03
  -2.385  0.219E-02  0.729E-03  0.729E-03  0.729E-03
  -2.365  0.227E-02  0.758E-03  0.758E-03  0.758E-03
  -2.345  0.236E-02  0.787E-03  0.787E-03  0.787E-03
  -2.325  0.245E-02  0.817E-03  0.817E-03  0.817E-03
  -2.305  0.254E-02  0.847E-03  0.847E-03  0.847E-03
  -2.285  0.263E-02  0.877E-03  0.877E-03  0.877E-03
  -2.265  0.272E-02  0.908E-03  0.908E-03  0.908E-03
  -2.245  0.282E-02  0.939E-03  0.939E-03  0.939E-03
  -2.225  0.291E-02  0.970E-03  0.970E-03  0.970E-03
  -2.205  0.300E-02  0.100E-02  0.100E-02  0.100E-02
  -2.185  0.310E-02  0.103E-02  0.103E-02  0.103E-02
  -2.165  0.319E-02  0.106E-02  0.106E-02  0.106E-02
  -2.145  0.329E-02  0.110E-02  0.110E-02  0.110E-02
  -2.125  0.339E-02  0.113E-02  0.113E-02  0.113E-02
  -2.105  0.348E-02  0.116E-02  0.116E-02  0.116E-02
  -2.085  0.358E-02  0.119E-02  0.119E-02  0.119E-02
  -2.065  0.368E-02  0.123E-02  0.123E-02  0.123E-02
  -2.045  0.378E-02  0.126E-02  0.126E-02  0.126E-02
  -2.025  0.388E-02  0.129E-02  0.129E-02  0.129E-02
  -2.005  0.398E-02  0.133E-02  0.133E-02  0.133E-02
  -1.985  0.408E-02  0.136E-02  0.136E-02  0.136E-02
  -1.965  0.418E-02  0.139E-02  0.139E-02  0.139E-02
  -1.945  0.428E-02  0.143E-02  0.143E-02  0.143E-02
  -1.925  0.439E-02  0.146E-02  0.146E-02  0.146E-02
  -1.905  0.449E-02  0.150E-02  0.150E-02  0.150E-02
  -1.885  0.459E-02  0.153E-02  0.153E-02  0.153E-02
  -1.865  0.470E-02  0.157E-02  0.157E-02  0.157E-02
  -1.845  0.480E-02  0.160E-02  0.160E-02  0.160E-02
  -1.825  0.490E-02  0.163E-02  0.163E-02  0.163E-02
  -1.805  0.501E-02  0.167E-02  0.167E-02  0.167E-02
  -1.785  0.511E-02  0.170E-02  0.170E-02  0.170E-02
  -1.765  0.522E-02  0.174E-02  0.174E-02  0.174E-02
  -1.745  0.533E-02  0.178E-02  0.178E-02  0.178E-02
  -1.725  0.543E-02  0.181E-02  0.181E-02  0.181E-02
  -1.705  0.554E-02  0.185E-02  0.185E-02  0.185E-02
  -1.685  0.565E-02  0.188E-02  0.188E-02  0.188E-02
  -1.665  0.576E-02  0.192E-02  0.192E-02  0.192E-02
  -1.645  0.587E-02  0.196E-02  0.196E-02  0.196E-02
  -1.625  0.598E-02  0.199E-02  0.199E-02  0.199E-02
  -1.605  0.609E-02  0.203E-02  0.203E-02  0.203E-02
  -1.585  0.621E-02  0.207E-02  0.207E-02  0.207E-02
  -1.565  0.632E-02  0.211E-02  0.211E-02  0.211E-02
  -1.545  0.643E-02  0.214E-02  0.214E-02  0.214E-02
  -1.525  0.655E-02  0.218E-02  0.218E-02  0.218E-02
  -1.505  0.666E-02  0.222E-02  0.222E-02  0.222E-02
  -1.485  0.678E-02  0.226E-02  0.226E-02  0.226E-02
  -1.465  0.690E-02  0.230E-02  0.230E-02  0.230E-02
  -1.445  0.702E-02  0.234E-02  0.234E-02  0.234E-02
  -1.425  0.714E-02  0.238E-02  0.238E-02  0.238E-02
  -1.405  0.727E-02  0.242E-02  0.242E-02  0.242E-02
  -1.385  0.739E-02  0.246E-02  0.246E-02  0.246E-02
  -1.365  0.751E-02  0.250E-02  0.250E-02  0.250E-02
  -1.345  0.764E-02  0.255E-02  0.255E-02  0.255E-02
  -1.325  0.777E-02  0.259E-02  0.259E-02  0.259E-02
  -1.305  0.790E-02  0.263E-02  0.263E-02  0.263E-02
  -1.285  0.803E-02  0.268E-02  0.268E-02  0.268E-02
  -1.265  0.817E-02  0.272E-02  0.272E-02  0.272E-02
  -1.245  0.830E-02  0.277E-02  0.277E-02  0.277E-02
  -1.225  0.844E-02  0.281E-02  0.281E-02  0.281E-02
  -1.205  0.858E-02  0.286E-02  0.286E-02  0.286E-02
  -1.185  0.872E-02  0.291E-02  0.291E-02  0.291E-02
  -1.165  0.886E-02  0.295E-02  0.295E-02  0.295E-02
  -1.145  0.901E-02  0.300E-02  0.300E-02  0.300E-02
  -1.125  0.916E-02  0.305E-02  0.305E-02  0.305E-02
  -1.105  0.931E-02  0.310E-02  0.310E-02  0.310E-02
  -1.085  0.946E-02  0.315E-02  0.315E-02  0.315E-02
  -1.065  0.961E-02  0.320E-02  0.320E-02  0.320E-02
  -1.045  0.977E-02  0.326E-02  0.326E-02  0.326E-02
  -1.025  0.993E-02  0.331E-02  0.331E-02  0.331E-02
  -1.005  0.101E-01  0.337E-02  0.337E-02  0.337E-02
  -0.985  0.103E-01  0.342E-02  0.342E-02  0.342E-02
  -0.965  0.104E-01  0.348E-02  0.348E-02  0.348E-02
  -0.945  0.106E-01  0.354E-02  0.354E-02  0.354E-02
  -0.925  0.108E-01  0.360E-02  0.360E-02  0.360E-02
  -0.905  0.110E-01  0.366E-02  0.366E-02  0.366E-02
  -0.885  0.112E-01  0.372E-02  0.372E-02  0.372E-02
  -0.865  0.113E-01  0.378E-02  0.378E-02  0.378E-02
  -0.845  0.115E-01  0.385E-02  0.385E-02  0.385E-02
  -0.825  0.117E-01  0.391E-02  0.391E-02  0.391E-02
  -0.805  0.119E-01  0.398E-02  0.398E-02  0.398E-02
  -0.785  0.121E-01  0.405E-02  0.405E-02  0.405E-02
  -0.765  0.124E-01  0.412E-02  0.412E-02  0.412E-02
  -0.745  0.126E-01  0.419E-02  0.419E-02  0.419E-02
  -0.725  0.128E-01  0.427E-02  0.427E-02  0.427E-02
  -0.705  0.130E-01  0.434E-02  0.434E-02  0.434E-02
  -0.685  0.132E-01  0.442E-02  0.442E-02  0.442E-02
  -0.665  0.135E-01  0.449E-02  0.449E-02  0.449E-02
  -0.645  0.137E-01  0.457E-02  0.457E-02  0.457E-02
  -0.625  0.140E-01  0.465E-02  0.465E-02  0.465E-02
  -0.605  0.142E-01  0.474E-02  0.474E-02  0.474E-02
  -0.585  0.145E-01  0.482E-02  0.482E-02  0.482E-02
  -0.565  0.147E-01  0.491E-02  0.491E-02  0.491E-02
  -0.545  0.150E-01  0.499E-02  0.499E-02  0.499E-02
  -0.525  0.153E-01  0.508E-02  0.508E-02  0.508E-02
  -0.505  0.155E-01  0.518E-02  0.518E-02  0.518E-02
  -0.485  0.158E-01  0.527E-02  0.527E-02  0.527E-02
  -0.465  0.161E-01  0.537E-02  0.537E-02  0.537E-02
  -0.445  0.164E-01  0.547E-02  0.547E-02  0.547E-02
  -0.425  0.167E-01  0.557E-02  0.557E-02  0.557E-02
  -0.405  0.170E-01  0.568E-02  0.568E-02  0.568E-02
  -0.385  0.174E-01  0.579E-02  0.579E-02  0.579E-02
  -0.365  0.177E-01  0.590E-02  0.590E-02  0.590E-02
  -0.345  0.181E-01  0.602E-02  0.602E-02  0.602E-02
  -0.325  0.184E-01  0.614E-02  0.614E-02  0.614E-02
  -0.305  0.188E-01  0.626E-02  0.626E-02  0.626E-02
  -0.285  0.192E-01  0.639E-02  0.639E-02  0.639E-02
  -0.265  0.196E-01  0.652E-02  0.652E-02  0.652E-02
  -0.245  0.200E-01  0.666E-02  0.666E-02  0.666E-02
  -0.225  0.204E-01  0.680E-02  0.680E-02  0.680E-02
  -0.205  0.208E-01  0.694E-02  0.694E-02  0.694E-02
  -0.185  0.213E-01  0.709E-02  0.709E-02  0.709E-02
  -0.165  0.217E-01  0.724E-02  0.724E-02  0.724E-02
  -0.145  0.222E-01  0.740E-02  0.740E-02  0.740E-02
  -0.125  0.227E-01  0.756E-02  0.756E-02  0.756E-02
  -0.105  0.232E-01  0.773E-02  0.773E-02  0.773E-02
  -0.085  0.237E-01  0.790E-02  0.790E-02  0.790E-02
  -0.065  0.242E-01  0.808E-02  0.808E-02  0.808E-02
  -0.045  0.248E-01  0.826E-02  0.826E-02  0.826E-02
  -0.025  0.253E-01  0.845E-02  0.845E-02  0.845E-02
  -0.005  0.259E-01  0.864E-02  0.864E-02  0.864E-02
   0.015  0.265E-01  0.884E-02  0.884E-02  0.884E-02
   0.035  0.272E-01  0.905E-02  0.905E-02  0.905E-02
   0.055  0.278E-01  0.927E-02  0.927E-02  0.927E-02
   0.075  0.285E-01  0.949E-02  0.949E-02  0.949E-02
   0.095  0.292E-01  0.972E-02  0.972E-02  0.972E-02
   0.115  0.299E-01  0.997E-02  0.997E-02  0.997E-02
   0.135  0.307E-01  0.102E-01  0.102E-01  0.102E-01
   0.155  0.314E-01  0.105E-01  0.105E-01  0.105E-01
   0.175  0.323E-01  0.108E-01  0.108E-01  0.108E-01
   0.195  0.331E-01  0.110E-01  0.110E-01  0.110E-01
   0.215  0.340E-01  0.113E-01  0.113E-01  0.113E-01
   0.235  0.349E-01  0.116E-01  0.116E-01  0.116E-01
   0.255  0.359E-01  0.120E-01  0.120E-01  0.120E-01
   0.275  0.369E-01  0.123E-01  0.123E-01  0.123E-01
   0.295  0.380E-01  0.127E-01  0.127E-01  0.127E-01
   0.315  0.391E-01  0.130E-01  0.130E-01  0.130E-01
   0.335  0.402E-01  0.134E-01  0.134E-01  0.134E-01
   0.355  0.414E-01  0.138E-01  0.138E-01  0.138E-01
   0.375  0.426E-01  0.142E-01  0.142E-01  0.142E-01
   0.395  0.439E-01  0.146E-01  0.146E-01  0.146E-01
   0.415  0.452E-01  0.151E-01  0.151E-01  0.151E-01
   0.435  0.465E-01  0.155E-01  0.155E-01  0.155E-01
   0.455  0.479E-01  0.160E-01  0.160E-01  0.160E-01
   0.475  0.493E-01  0.164E-01  0.164E-01  0.164E-01
   0.495  0.507E-01  0.169E-01  0.169E-01  0.169E-01
   0.515  0.521E-01  0.174E-01  0.174E-01  0.174E-01
   0.535  0.536E-01  0.179E-01  0.179E-01  0.179E-01
   0.555  0.550E-01  0.183E-01  0.183E-01  0.183E-01
   0.575  0.565E-01  0.188E-01  0.188E-01  0.188E-01
   0.595  0.579E-01  0.193E-01  0.193E-01  0.193E-01
   0.615  0.594E-01  0.198E-01  0.198E-01  0.198E-01
   0.635  0.608E-01  0.203E-01  0.203E-01  0.203E-01
   0.655  0.622E-01  0.207E-01  0.207E-01  0.207E-01
   0.675  0.636E-01  0.212E-01  0.212E-01  0.212E-01
   0.695  0.650E-01  0.217E-01  0.217E-01  0.217E-01
   0.715  0.664E-01  0.221E-01  0.221E-01  0.221E-01
   0.735  0.677E-01  0.226E-01  0.226E-01  0.226E-01
   0.755  0.690E-01  0.230E-01  0.230E-01  0.230E-01
   0.775  0.702E-01  0.234E-01  0.234E-01  0.234E-01
   0.795  0.714E-01  0.238E-01  0.238E-01  0.238E-01
   0.815  0.725E-01  0.242E-01  0.242E-01  0.242E-01
   0.835  0.736E-01  0.245E-01  0.245E-01  0.245E-01
   0.855  0.747E-01  0.249E-01  0.249E-01  0.249E-01
   0.875  0.757E-01  0.252E-01  0.252E-01  0.252E-01
   0.895  0.766E-01  0.255E-01  0.255E-01  0.255E-01
   0.915  0.775E-01  0.258E-01  0.258E-01  0.258E-01
   0.935  0.784E-01  0.261E-01  0.261E-01  0.261E-01
   0.955  0.791E-01  0.264E-01  0.264E-01  0.264E-01
   0.975  0.799E-01  0.266E-01  0.266E-01  0.266E-01
   0.995  0.806E-01  0.269E-01  0.269E-01  0.269E-01
   1.015  0.812E-01  0.271E-01  0.271E-01  0.271E-01
   1.035  0.818E-01  0.273E-01  0.273E-01  0.273E-01
   1.055  0.823E-01  0.274E-01  0.274E-01  0.274E-01
   1.075  0.828E-01  0.276E-01  0.276E-01  0.276E-01
   1.095  0.832E-01  0.277E-01  0.277E-01  0.277E-01
   1.115  0.835E-01  0.278E-01  0.278E-01  0.278E-01
   1.135  0.838E-01  0.279E-01  0.279E-01  0.279E-01
   1.155  0.841E-01  0.280E-01  0.280E-01  0.280E-01
   1.175  0.843E-01  0.281E-01  0.281E-01  0.281E-01
   1.195  0.844E-01  0.281E-01  0.281E-01  0.281E-01
   1.215  0.845E-01  0.282E-01  0.282E-01  0.282E-01
   1.235  0.845E-01  0.282E-01  0.282E-01  0.282E-01
   1.255  0.845E-01  0.282E-01  0.282E-01  0.282E-01
   1.275  0.844E-01  0.281E-01  0.281E-01  0.281E-01
   1.295  0.843E-01  0.281E-01  0.281E-01  0.281E-01
   1.315  0.842E-01  0.281E-01  0.281E-01  0.281E-01
   1.335  0.840E-01  0.280E-01  0.280E-01  0.280E-01
   1.355  0.838E-01  0.279E-01  0.279E-01  0.279E-01
   1.375  0.835E-01  0.278E-01  0.278E-01  0.278E-01
   1.395  0.832E-01  0.277E-01  0.277E-01  0.277E-01
   1.415  0.829E-01  0.276E-01  0.276E-01  0.276E-01
   1.435  0.826E-01  0.275E-01  0.275E-01  0.275E-01
   1.455  0.823E-01  0.274E-01  0.274E-01  0.274E-01
   1.475  0.820E-01  0.273E-01  0.273E-01  0.273E-01
   1.495  0.816E-01  0.272E-01  0.272E-01  0.272E-01
   1.515  0.813E-01  0.271E-01  0.271E-01  0.271E-01
   1.535  0.810E-01  0.270E-01  0.270E-01  0.270E-01
   1.555  0.808E-01  0.269E-01  0.269E-01  0.269E-01
   1.575  0.805E-01  0.268E-01  0.268E-01  0.268E-01
   1.595  0.803E-01  0.268E-01  0.268E-01  0.268E-01
   1.615  0.801E-01  0.267E-01  0.267E-01  0.267E-01
   1.635  0.799E-01  0.266E-01  0.266E-01  0.266E-01
   1.655  0.797E-01  0.266E-01  0.266E-01  0.266E-01
   1.675  0.796E-01  0.265E-01  0.265E-01  0.265E-01
   1.695  0.795E-01  0.265E-01  0.265E-01  0.265E-01
   1.715  0.794E-01  0.265E-01  0.265E-01  0.265E-01
   1.735  0.793E-01  0.264E-01  0.264E-01  0.264E-01
   1.755  0.792E-01  0.264E-01  0.264E-01  0.264E-01
   1.775  0.792E-01  0.264E-01  0.264E-01  0.264E-01
   1.795  0.791E-01  0.264E-01  0.264E-01  0.264E-01
   1.815  0.790E-01  0.263E-01  0.263E-01  0.263E-01
   1.835  0.789E-01  0.263E-01  0.263E-01  0.263E-01
   1.855  0.787E-01  0.262E-01  0.262E-01  0.262E-01
   1.875  0.786E-01  0.262E-01  0.262E-01  0.262E-01
   1.895  0.784E-01  0.261E-01  0.261E-01  0.261E-01
   1.915  0.781E-01  0.260E-01  0.260E-01  0.260E-01
   1.935  0.778E-01  0.259E-01  0.259E-01  0.259E-01
   1.955  0.775E-01  0.258E-01  0.258E-01  0.258E-01
   1.975  0.771E-01  0.257E-01  0.257E-01  0.257E-01
   1.995  0.766E-01  0.255E-01  0.255E-01  0.255E-01
   2.015  0.762E-01  0.254E-01  0.254E-01  0.254E-01
   2.035  0.756E-01  0.252E-01  0.252E-01  0.252E-01
   2.055  0.750E-01  0.250E-01  0.250E-01  0.250E-01
   2.075  0.744E-01  0.248E-01  0.248E-01  0.248E-01
   2.095  0.738E-01  0.246E-01  0.246E-01  0.246E-01
   2.115  0.731E-01  0.244E-01  0.244E-01  0.244E-01
   2.135  0.724E-01  0.241E-01  0.241E-01  0.241E-01
   2.155  0.717E-01  0.239E-01  0.239E-01  0.239E-01
   2.175  0.710E-01  0.237E-01  0.237E-01  0.237E-01
   2.195  0.703E-01  0.234E-01  0.234E-01  0.234E-01
   2.215  0.696E-01  0.232E-01  0.232E-01  0.232E-01
   2.235  0.690E-01  0.230E-01  0.230E-01  0.230E-01
   2.255  0.683E-01  0.228E-01  0.228E-01  0.228E-01
   2.275  0.677E-01  0.226E-01  0.226E-01  0.226E-01
   2.295  0.671E-01  0.224E-01  0.224E-01  0.224E-01
   2.315  0.666E-01  0.222E-01  0.222E-01  0.222E-01
   2.335  0.661E-01  0.220E-01  0.220E-01  0.220E-01
   2.355  0.656E-01  0.219E-01  0.219E-01  0.219E-01
   2.375  0.652E-01  0.217E-01  0.217E-01  0.217E-01
   2.395  0.647E-01  0.216E-01  0.216E-01  0.216E-01
   2.415  0.643E-01  0.214E-01  0.214E-01  0.214E-01
   2.435  0.640E-01  0.213E-01  0.213E-01  0.213E-01
   2.455  0.636E-01  0.212E-01  0.212E-01  0.212E-01
   2.475  0.632E-01  0.211E-01  0.211E-01  0.211E-01
   2.495  0.629E-01  0.210E-01  0.210E-01  0.210E-01
   2.515  0.625E-01  0.208E-01  0.208E-01  0.208E-01
   2.535  0.620E-01  0.207E-01  0.207E-01  0.207E-01
   2.555  0.616E-01  0.205E-01  0.205E-01  0.205E-01
   2.575  0.611E-01  0.204E-01  0.204E-01  0.204E-01
   2.595  0.606E-01  0.202E-01  0.202E-01  0.202E-01
   2.615  0.600E-01  0.200E-01  0.200E-01  0.200E-01
   2.635  0.594E-01  0.198E-01  0.198E-01  0.198E-01
   2.655  0.587E-01  0.196E-01  0.196E-01  0.196E-01
   2.675  0.579E-01  0.193E-01  0.193E-01  0.193E-01
   2.695  0.571E-01  0.190E-01  0.190E-01  0.190E-01
   2.715  0.563E-01  0.188E-01  0.188E-01  0.188E-01
   2.735  0.554E-01  0.185E-01  0.185E-01  0.185E-01
   2.755  0.545E-01  0.182E-01  0.182E-01  0.182E-01
   2.775  0.536E-01  0.179E-01  0.179E-01  0.179E-01
   2.795  0.526E-01  0.175E-01  0.175E-01  0.175E-01
   2.815  0.516E-01  0.172E-01  0.172E-01  0.172E-01
   2.835  0.507E-01  0.169E-01  0.169E-01  0.169E-01
   2.855  0.498E-01  0.166E-01  0.166E-01  0.166E-01
   2.875  0.489E-01  0.163E-01  0.163E-01  0.163E-01
   2.895  0.480E-01  0.160E-01  0.160E-01  0.160E-01
   2.915  0.472E-01  0.157E-01  0.157E-01  0.157E-01
   2.935  0.465E-01  0.155E-01  0.155E-01  0.155E-01
   2.955  0.459E-01  0.153E-01  0.153E-01  0.153E-01
   2.975  0.453E-01  0.151E-01  0.151E-01  0.151E-01
   2.995  0.448E-01  0.149E-01  0.149E-01  0.149E-01
   3.015  0.445E-01  0.148E-01  0.148E-01  0.148E-01
   3.035  0.442E-01  0.147E-01  0.147E-01  0.147E-01
   3.055  0.441E-01  0.147E-01  0.147E-01  0.147E-01
   3.075  0.440E-01  0.147E-01  0.147E-01  0.147E-01
   3.095  0.441E-01  0.147E-01  0.147E-01  0.147E-01
   3.115  0.442E-01  0.147E-01  0.147E-01  0.147E-01
   3.135  0.445E-01  0.148E-01  0.148E-01  0.148E-01
   3.155  0.449E-01  0.150E-01  0.150E-01  0.150E-01
   3.175  0.453E-01  0.151E-01  0.151E-01  0.151E-01
   3.195  0.458E-01  0.153E-01  0.153E-01  0.153E-01
   3.215  0.464E-01  0.155E-01  0.155E-01  0.155E-01
   3.235  0.471E-01  0.157E-01  0.157E-01  0.157E-01
   3.255  0.478E-01  0.159E-01  0.159E-01  0.159E-01
   3.275  0.486E-01  0.162E-01  0.162E-01  0.162E-01
   3.295  0.495E-01  0.165E-01  0.165E-01  0.165E-01
   3.315  0.503E-01  0.168E-01  0.168E-01  0.168E-01
   3.335  0.512E-01  0.171E-01  0.171E-01  0.171E-01
   3.355  0.522E-01  0.174E-01  0.174E-01  0.174E-01
   3.375  0.532E-01  0.177E-01  0.177E-01  0.177E-01
   3.395  0.542E-01  0.181E-01  0.181E-01  0.181E-01
   3.415  0.553E-01  0.184E-01  0.184E-01  0.184E-01
   3.435  0.563E-01  0.188E-01  0.188E-01  0.188E-01
   3.455  0.575E-01  0.192E-01  0.192E-01  0.192E-01
   3.475  0.586E-01  0.195E-01  0.195E-01  0.195E-01
   3.495  0.599E-01  0.200E-01  0.200E-01  0.200E-01
   3.515  0.611E-01  0.204E-01  0.204E-01  0.204E-01
   3.535  0.625E-01  0.208E-01  0.208E-01  0.208E-01
   3.555  0.639E-01  0.213E-01  0.213E-01  0.213E-01
   3.575  0.653E-01  0.218E-01  0.218E-01  0.218E-01
   3.595  0.668E-01  0.223E-01  0.223E-01  0.223E-01
   3.615  0.685E-01  0.228E-01  0.228E-01  0.228E-01
   3.635  0.701E-01  0.234E-01  0.234E-01  0.234E-01
   3.655  0.719E-01  0.240E-01  0.240E-01  0.240E-01
   3.675  0.737E-01  0.246E-01  0.246E-01  0.246E-01
   3.695  0.756E-01  0.252E-01  0.252E-01  0.252E-01
   3.715  0.776E-01  0.259E-01  0.259E-01  0.259E-01
   3.735  0.796E-01  0.265E-01  0.265E-01  0.265E-01
   3.755  0.817E-01  0.272E-01  0.272E-01  0.272E-01
   3.775  0.839E-01  0.280E-01  0.280E-01  0.280E-01
   3.795  0.860E-01  0.287E-01  0.287E-01  0.287E-01
   3.815  0.882E-01  0.294E-01  0.294E-01  0.294E-01
   3.835  0.904E-01  0.301E-01  0.301E-01  0.301E-01
   3.855  0.926E-01  0.309E-01  0.309E-01  0.309E-01
   3.875  0.947E-01  0.316E-01  0.316E-01  0.316E-01
   3.895  0.969E-01  0.323E-01  0.323E-01  0.323E-01
   3.915  0.989E-01  0.330E-01  0.330E-01  0.330E-01
   3.935  0.101E+00  0.336E-01  0.336E-01  0.336E-01
   3.955  0.103E+00  0.343E-01  0.343E-01  0.343E-01
   3.975  0.105E+00  0.349E-01  0.349E-01  0.349E-01
   3.995  0.107E+00  0.355E-01  0.355E-01  0.355E-01
   4.015  0.108E+00  0.361E-01  0.361E-01  0.361E-01
   4.035  0.110E+00  0.366E-01  0.366E-01  0.366E-01
   4.055  0.111E+00  0.370E-01  0.370E-01  0.370E-01
   4.075  0.112E+00  0.375E-01  0.375E-01  0.375E-01
   4.095  0.114E+00  0.379E-01  0.379E-01  0.379E-01
   4.115  0.115E+00  0.382E-01  0.382E-01  0.382E-01
   4.135  0.116E+00  0.386E-01  0.386E-01  0.386E-01
   4.155  0.117E+00  0.389E-01  0.389E-01  0.389E-01
   4.175  0.117E+00  0.391E-01  0.391E-01  0.391E-01
   4.195  0.118E+00  0.393E-01  0.393E-01  0.393E-01
   4.215  0.119E+00  0.395E-01  0.395E-01  0.395E-01
   4.235  0.119E+00  0.397E-01  0.397E-01  0.397E-01
   4.255  0.119E+00  0.398E-01  0.398E-01  0.398E-01
   4.275  0.120E+00  0.399E-01  0.399E-01  0.399E-01
   4.295  0.120E+00  0.400E-01  0.400E-01  0.400E-01
   4.315  0.120E+00  0.401E-01  0.401E-01  0.401E-01
   4.335  0.120E+00  0.401E-01  0.401E-01  0.401E-01
   4.355  0.121E+00  0.402E-01  0.402E-01  0.402E-01
   4.375  0.121E+00  0.402E-01  0.402E-01  0.402E-01
   4.395  0.121E+00  0.402E-01  0.402E-01  0.402E-01
   4.415  0.121E+00  0.403E-01  0.403E-01  0.403E-01
   4.435  0.121E+00  0.403E-01  0.403E-01  0.403E-01
   4.455  0.121E+00  0.403E-01  0.403E-01  0.403E-01
   4.475  0.121E+00  0.403E-01  0.403E-01  0.403E-01
   4.495  0.121E+00  0.403E-01  0.403E-01  0.403E-01
   4.515  0.121E+00  0.403E-01  0.403E-01  0.403E-01
   4.535  0.121E+00  0.403E-01  0.403E-01  0.403E-01
   4.555  0.121E+00  0.403E-01  0.403E-01  0.403E-01
   4.575  0.121E+00  0.403E-01  0.403E-01  0.403E-01
   4.595  0.121E+00  0.402E-01  0.402E-01  0.402E-01
   4.615  0.121E+00  0.402E-01  0.402E-01  0.402E-01
   4.635  0.120E+00  0.401E-01  0.401E-01  0.401E-01
   4.655  0.120E+00  0.401E-01  0.401E-01  0.401E-01
   4.675  0.120E+00  0.400E-01  0.400E-01  0.400E-01
   4.695  0.120E+00  0.399E-01  0.399E-01  0.399E-01
   4.715  0.119E+00  0.398E-01  0.398E-01  0.398E-01
   4.735  0.119E+00  0.397E-01  0.397E-01  0.397E-01
   4.755  0.119E+00  0.396E-01  0.396E-01  0.396E-01
   4.775  0.118E+00  0.394E-01  0.394E-01  0.394E-01
   4.795  0.118E+00  0.393E-01  0.393E-01  0.393E-01
   4.815  0.117E+00  0.391E-01  0.391E-01  0.391E-01
   4.835  0.117E+00  0.389E-01  0.389E-01  0.389E-01
   4.855  0.116E+00  0.388E-01  0.388E-01  0.388E-01
   4.875  0.116E+00  0.386E-01  0.386E-01  0.386E-01
   4.895  0.115E+00  0.384E-01  0.384E-01  0.384E-01
   4.915  0.115E+00  0.382E-01  0.382E-01  0.382E-01
   4.935  0.114E+00  0.381E-01  0.381E-01  0.381E-01
   4.955  0.114E+00  0.379E-01  0.379E-01  0.379E-01
   4.975  0.113E+00  0.377E-01  0.377E-01  0.377E-01
   4.995  0.113E+00  0.376E-01  0.376E-01  0.376E-01
   5.015  0.112E+00  0.375E-01  0.375E-01  0.375E-01
   5.035  0.112E+00  0.373E-01  0.373E-01  0.373E-01
   5.055  0.112E+00  0.372E-01  0.372E-01  0.372E-01
   5.075  0.111E+00  0.371E-01  0.371E-01  0.371E-01
   5.095  0.111E+00  0.371E-01  0.371E-01  0.371E-01
   5.115  0.111E+00  0.370E-01  0.370E-01  0.370E-01
   5.135  0.111E+00  0.370E-01  0.370E-01  0.370E-01
   5.155  0.111E+00  0.369E-01  0.369E-01  0.369E-01
   5.175  0.111E+00  0.369E-01  0.369E-01  0.369E-01
   5.195  0.111E+00  0.369E-01  0.369E-01  0.369E-01
   5.215  0.111E+00  0.369E-01  0.369E-01  0.369E-01
   5.235  0.111E+00  0.369E-01  0.369E-01  0.369E-01
   5.255  0.111E+00  0.369E-01  0.369E-01  0.369E-01
   5.275  0.111E+00  0.369E-01  0.369E-01  0.369E-01
   5.295  0.111E+00  0.369E-01  0.369E-01  0.369E-01
   5.315  0.111E+00  0.369E-01  0.369E-01  0.369E-01
   5.335  0.111E+00  0.369E-01  0.369E-01  0.369E-01
   5.355  0.111E+00  0.368E-01  0.368E-01  0.368E-01
   5.375  0.110E+00  0.368E-01  0.368E-01  0.368E-01
   5.395  0.110E+00  0.368E-01  0.368E-01  0.368E-01
   5.415  0.110E+00  0.367E-01  0.367E-01  0.367E-01
   5.435  0.110E+00  0.366E-01  0.366E-01  0.366E-01
   5.455  0.110E+00  0.365E-01  0.365E-01  0.365E-01
   5.475  0.109E+00  0.365E-01  0.365E-01  0.365E-01
   5.495  0.109E+00  0.364E-01  0.364E-01  0.364E-01
   5.515  0.109E+00  0.363E-01  0.363E-01  0.363E-01
   5.535  0.108E+00  0.362E-01  0.362E-01  0.362E-01
   5.555  0.108E+00  0.360E-01  0.360E-01  0.360E-01
   5.575  0.108E+00  0.359E-01  0.359E-01  0.359E-01
   5.595  0.107E+00  0.358E-01  0.358E-01  0.358E-01
   5.615  0.107E+00  0.357E-01  0.357E-01  0.357E-01
   5.635  0.107E+00  0.356E-01  0.356E-01  0.356E-01
   5.655  0.107E+00  0.356E-01  0.356E-01  0.356E-01
   5.675  0.106E+00  0.355E-01  0.355E-01  0.355E-01
   5.695  0.106E+00  0.354E-01  0.354E-01  0.354E-01
   5.715  0.106E+00  0.354E-01  0.354E-01  0.354E-01
   5.735  0.106E+00  0.354E-01  0.354E-01  0.354E-01
   5.755  0.106E+00  0.354E-01  0.354E-01  0.354E-01
   5.775  0.106E+00  0.354E-01  0.354E-01  0.354E-01
   5.795  0.107E+00  0.355E-01  0.355E-01  0.355E-01
   5.815  0.107E+00  0.356E-01  0.356E-01  0.356E-01
   5.835  0.107E+00  0.357E-01  0.357E-01  0.357E-01
   5.855  0.107E+00  0.358E-01  0.358E-01  0.358E-01
   5.875  0.108E+00  0.360E-01  0.360E-01  0.360E-01
   5.895  0.109E+00  0.362E-01  0.362E-01  0.362E-01
   5.915  0.109E+00  0.364E-01  0.364E-01  0.364E-01
   5.935  0.110E+00  0.366E-01  0.366E-01  0.366E-01
   5.955  0.111E+00  0.369E-01  0.369E-01  0.369E-01
   5.975  0.112E+00  0.372E-01  0.372E-01  0.372E-01
   5.995  0.113E+00  0.375E-01  0.375E-01  0.375E-01
   6.015  0.114E+00  0.379E-01  0.379E-01  0.379E-01
   6.035  0.115E+00  0.382E-01  0.382E-01  0.382E-01
   6.055  0.116E+00  0.386E-01  0.386E-01  0.386E-01
   6.075  0.117E+00  0.390E-01  0.390E-01  0.390E-01
   6.095  0.118E+00  0.395E-01  0.395E-01  0.395E-01
   6.115  0.120E+00  0.399E-01  0.399E-01  0.399E-01
   6.135  0.121E+00  0.404E-01  0.404E-01  0.404E-01
   6.155  0.123E+00  0.409E-01  0.409E-01  0.409E-01
   6.175  0.124E+00  0.414E-01  0.414E-01  0.414E-01
   6.195  0.126E+00  0.419E-01  0.419E-01  0.419E-01
   6.215  0.127E+00  0.424E-01  0.424E-01  0.424E-01
   6.235  0.129E+00  0.429E-01  0.429E-01  0.429E-01
   6.255  0.130E+00  0.435E-01  0.435E-01  0.435E-01
   6.275  0.132E+00  0.440E-01  0.440E-01  0.440E-01
   6.295  0.134E+00  0.445E-01  0.445E-01  0.445E-01
   6.315  0.135E+00  0.450E-01  0.450E-01  0.450E-01
   6.335  0.137E+00  0.455E-01  0.455E-01  0.455E-01
   6.355  0.138E+00  0.460E-01  0.460E-01  0.460E-01
   6.375  0.140E+00  0.465E-01  0.465E-01  0.465E-01
   6.395  0.141E+00  0.470E-01  0.470E-01  0.470E-01
   6.415  0.142E+00  0.474E-01  0.474E-01  0.474E-01
   6.435  0.143E+00  0.478E-01  0.478E-01  0.478E-01
   6.455  0.145E+00  0.482E-01  0.482E-01  0.482E-01
   6.475  0.146E+00  0.486E-01  0.486E-01  0.486E-01
   6.495  0.147E+00  0.490E-01  0.490E-01  0.490E-01
   6.515  0.148E+00  0.493E-01  0.493E-01  0.493E-01
   6.535  0.149E+00  0.496E-01  0.496E-01  0.496E-01
   6.555  0.150E+00  0.499E-01  0.499E-01  0.499E-01
   6.575  0.151E+00  0.502E-01  0.502E-01  0.502E-01
   6.595  0.151E+00  0.505E-01  0.505E-01  0.505E-01
   6.615  0.152E+00  0.507E-01  0.507E-01  0.507E-01
   6.635  0.153E+00  0.509E-01  0.509E-01  0.509E-01
   6.655  0.154E+00  0.512E-01  0.512E-01  0.512E-01
   6.675  0.154E+00  0.514E-01  0.514E-01  0.514E-01
   6.695  0.155E+00  0.516E-01  0.516E-01  0.516E-01
   6.715  0.156E+00  0.519E-01  0.519E-01  0.519E-01
   6.735  0.156E+00  0.521E-01  0.521E-01  0.521E-01
   6.755  0.157E+00  0.524E-01  0.524E-01  0.524E-01
   6.775  0.158E+00  0.527E-01  0.527E-01  0.527E-01
   6.795  0.159E+00  0.529E-01  0.529E-01  0.529E-01
   6.815  0.160E+00  0.532E-01  0.532E-01  0.532E-01
   6.835  0.161E+00  0.536E-01  0.536E-01  0.536E-01
   6.855  0.162E+00  0.539E-01  0.539E-01  0.539E-01
   6.875  0.163E+00  0.542E-01  0.542E-01  0.542E-01
   6.895  0.164E+00  0.546E-01  0.546E-01  0.546E-01
   6.915  0.165E+00  0.549E-01  0.549E-01  0.549E-01
   6.935  0.166E+00  0.553E-01  0.553E-01  0.553E-01
   6.955  0.167E+00  0.557E-01  0.557E-01  0.557E-01
   6.975  0.168E+00  0.561E-01  0.561E-01  0.561E-01
   6.995  0.169E+00  0.564E-01  0.564E-01  0.564E-01
   7.015  0.170E+00  0.568E-01  0.568E-01  0.568E-01
   7.035  0.171E+00  0.571E-01  0.571E-01  0.571E-01
   7.055  0.172E+00  0.575E-01  0.575E-01  0.575E-01
   7.075  0.173E+00  0.578E-01  0.578E-01  0.578E-01
   7.095  0.174E+00  0.580E-01  0.580E-01  0.580E-01
   7.115  0.175E+00  0.583E-01  0.583E-01  0.583E-01
   7.135  0.176E+00  0.585E-01  0.585E-01  0.585E-01
   7.155  0.176E+00  0.587E-01  0.587E-01  0.587E-01
   7.175  0.177E+00  0.588E-01  0.588E-01  0.588E-01
   7.195  0.177E+00  0.590E-01  0.590E-01  0.590E-01
   7.215  0.177E+00  0.590E-01  0.590E-01  0.590E-01
   7.235  0.177E+00  0.591E-01  0.591E-01  0.591E-01
   7.255  0.177E+00  0.591E-01  0.591E-01  0.591E-01
   7.275  0.177E+00  0.591E-01  0.591E-01  0.591E-01
   7.295  0.177E+00  0.590E-01  0.590E-01  0.590E-01
   7.315  0.177E+00  0.590E-01  0.590E-01  0.590E-01
   7.335  0.177E+00  0.589E-01  0.589E-01  0.589E-01
   7.355  0.176E+00  0.588E-01  0.588E-01  0.588E-01
   7.375  0.176E+00  0.586E-01  0.586E-01  0.586E-01
   7.395  0.176E+00  0.585E-01  0.585E-01  0.585E-01
   7.415  0.175E+00  0.584E-01  0.584E-01  0.584E-01
   7.435  0.175E+00  0.583E-01  0.583E-01  0.583E-01
   7.455  0.174E+00  0.581E-01  0.581E-01  0.581E-01
   7.475  0.174E+00  0.580E-01  0.580E-01  0.580E-01
   7.495  0.174E+00  0.580E-01  0.580E-01  0.580E-01
   7.515  0.174E+00  0.579E-01  0.579E-01  0.579E-01
   7.535  0.174E+00  0.578E-01  0.578E-01  0.578E-01
   7.555  0.173E+00  0.578E-01  0.578E-01  0.578E-01
   7.575  0.173E+00  0.578E-01  0.578E-01  0.578E-01
   7.595  0.173E+00  0.578E-01  0.578E-01  0.578E-01
   7.615  0.174E+00  0.579E-01  0.579E-01  0.579E-01
   7.635  0.174E+00  0.579E-01  0.579E-01  0.579E-01
   7.655  0.174E+00  0.580E-01  0.580E-01  0.580E-01
   7.675  0.174E+00  0.581E-01  0.581E-01  0.581E-01
   7.695  0.175E+00  0.583E-01  0.583E-01  0.583E-01
   7.715  0.175E+00  0.584E-01  0.584E-01  0.584E-01
   7.735  0.176E+00  0.586E-01  0.586E-01  0.586E-01
   7.755  0.176E+00  0.588E-01  0.588E-01  0.588E-01
   7.775  0.177E+00  0.589E-01  0.589E-01  0.589E-01
   7.795  0.177E+00  0.591E-01  0.591E-01  0.591E-01
   7.815  0.178E+00  0.593E-01  0.593E-01  0.593E-01
   7.835  0.178E+00  0.595E-01  0.595E-01  0.595E-01
   7.855  0.179E+00  0.597E-01  0.597E-01  0.597E-01
   7.875  0.179E+00  0.598E-01  0.598E-01  0.598E-01
   7.895  0.180E+00  0.600E-01  0.600E-01  0.600E-01
   7.915  0.180E+00  0.601E-01  0.601E-01  0.601E-01
   7.935  0.181E+00  0.602E-01  0.602E-01  0.602E-01
   7.955  0.181E+00  0.603E-01  0.603E-01  0.603E-01
   7.975  0.181E+00  0.603E-01  0.603E-01  0.603E-01
   7.995  0.181E+00  0.604E-01  0.604E-01  0.604E-01
   8.015  0.181E+00  0.604E-01  0.604E-01  0.604E-01
   8.035  0.181E+00  0.604E-01  0.604E-01  0.604E-01
   8.055  0.181E+00  0.603E-01  0.603E-01  0.603E-01
   8.075  0.181E+00  0.602E-01  0.602E-01  0.602E-01
   8.095  0.180E+00  0.601E-01  0.601E-01  0.601E-01
   8.115  0.180E+00  0.600E-01  0.600E-01  0.600E-01
   8.135  0.180E+00  0.599E-01  0.599E-01  0.599E-01
   8.155  0.179E+00  0.597E-01  0.597E-01  0.597E-01
   8.175  0.179E+00  0.595E-01  0.595E-01  0.595E-01
   8.195  0.178E+00  0.593E-01  0.593E-01  0.593E-01
   8.215  0.177E+00  0.592E-01  0.592E-01  0.592E-01
   8.235  0.177E+00  0.590E-01  0.590E-01  0.590E-01
   8.255  0.176E+00  0.588E-01  0.588E-01  0.588E-01
   8.275  0.176E+00  0.586E-01  0.586E-01  0.586E-01
   8.295  0.175E+00  0.584E-01  0.584E-01  0.584E-01
   8.315  0.175E+00  0.582E-01  0.582E-01  0.582E-01
   8.335  0.174E+00  0.581E-01  0.581E-01  0.581E-01
   8.355  0.174E+00  0.579E-01  0.579E-01  0.579E-01
   8.375  0.173E+00  0.578E-01  0.578E-01  0.578E-01
   8.395  0.173E+00  0.577E-01  0.577E-01  0.577E-01
   8.415  0.173E+00  0.577E-01  0.577E-01  0.577E-01
   8.435  0.173E+00  0.576E-01  0.576E-01  0.576E-01
   8.455  0.173E+00  0.576E-01  0.576E-01  0.576E-01
   8.475  0.173E+00  0.576E-01  0.576E-01  0.576E-01
   8.495  0.173E+00  0.577E-01  0.577E-01  0.577E-01
   8.515  0.173E+00  0.577E-01  0.577E-01  0.577E-01
   8.535  0.173E+00  0.578E-01  0.578E-01  0.578E-01
   8.555  0.174E+00  0.579E-01  0.579E-01  0.579E-01
   8.575  0.174E+00  0.580E-01  0.580E-01  0.580E-01
   8.595  0.174E+00  0.581E-01  0.581E-01  0.581E-01
   8.615  0.175E+00  0.582E-01  0.582E-01  0.582E-01
   8.635  0.175E+00  0.583E-01  0.583E-01  0.583E-01
   8.655  0.175E+00  0.584E-01  0.584E-01  0.584E-01
   8.675  0.176E+00  0.585E-01  0.585E-01  0.585E-01
   8.695  0.176E+00  0.586E-01  0.586E-01  0.586E-01
   8.715  0.176E+00  0.587E-01  0.587E-01  0.587E-01
   8.735  0.176E+00  0.588E-01  0.588E-01  0.588E-01
   8.755  0.177E+00  0.589E-01  0.589E-01  0.589E-01
   8.775  0.177E+00  0.589E-01  0.589E-01  0.589E-01
   8.795  0.177E+00  0.589E-01  0.589E-01  0.589E-01
   8.815  0.177E+00  0.589E-01  0.589E-01  0.589E-01
   8.835  0.177E+00  0.589E-01  0.589E-01  0.589E-01
   8.855  0.177E+00  0.589E-01  0.589E-01  0.589E-01
   8.875  0.176E+00  0.588E-01  0.588E-01  0.588E-01
   8.895  0.176E+00  0.588E-01  0.588E-01  0.588E-01
   8.915  0.176E+00  0.587E-01  0.587E-01  0.587E-01
   8.935  0.176E+00  0.586E-01  0.586E-01  0.586E-01
   8.955  0.176E+00  0.585E-01  0.585E-01  0.585E-01
   8.975  0.175E+00  0.584E-01  0.584E-01  0.584E-01
   8.995  0.175E+00  0.583E-01  0.583E-01  0.583E-01
   9.015  0.175E+00  0.583E-01  0.583E-01  0.583E-01
   9.035  0.175E+00  0.582E-01  0.582E-01  0.582E-01
   9.055  0.174E+00  0.581E-01  0.581E-01  0.581E-01
   9.075  0.174E+00  0.581E-01  0.581E-01  0.581E-01
   9.095  0.174E+00  0.581E-01  0.581E-01  0.581E-01
   9.115  0.174E+00  0.581E-01  0.581E-01  0.581E-01
   9.135  0.174E+00  0.581E-01  0.581E-01  0.581E-01
   9.155  0.175E+00  0.582E-01  0.582E-01  0.582E-01
   9.175  0.175E+00  0.583E-01  0.583E-01  0.583E-01
   9.195  0.175E+00  0.584E-01  0.584E-01  0.584E-01
   9.215  0.176E+00  0.586E-01  0.586E-01  0.586E-01
   9.235  0.176E+00  0.588E-01  0.588E-01  0.588E-01
   9.255  0.177E+00  0.590E-01  0.590E-01  0.590E-01
   9.275  0.178E+00  0.593E-01  0.593E-01  0.593E-01
   9.295  0.179E+00  0.596E-01  0.596E-01  0.596E-01
   9.315  0.180E+00  0.599E-01  0.599E-01  0.599E-01
   9.335  0.181E+00  0.602E-01  0.602E-01  0.602E-01
   9.355  0.182E+00  0.606E-01  0.606E-01  0.606E-01
   9.375  0.183E+00  0.609E-01  0.609E-01  0.609E-01
   9.395  0.184E+00  0.613E-01  0.613E-01  0.613E-01
   9.415  0.185E+00  0.617E-01  0.617E-01  0.617E-01
   9.435  0.186E+00  0.621E-01  0.621E-01  0.621E-01
   9.455  0.187E+00  0.625E-01  0.625E-01  0.625E-01
   9.475  0.189E+00  0.629E-01  0.629E-01  0.629E-01
   9.495  0.190E+00  0.633E-01  0.633E-01  0.633E-01
   9.515  0.191E+00  0.637E-01  0.637E-01  0.637E-01
   9.535  0.192E+00  0.640E-01  0.640E-01  0.640E-01
   9.555  0.193E+00  0.644E-01  0.644E-01  0.644E-01
   9.575  0.194E+00  0.648E-01  0.648E-01  0.648E-01
   9.595  0.195E+00  0.651E-01  0.651E-01  0.651E-01
   9.615  0.196E+00  0.654E-01  0.654E-01  0.654E-01
   9.635  0.197E+00  0.658E-01  0.658E-01  0.658E-01
   9.655  0.198E+00  0.661E-01  0.661E-01  0.661E-01
   9.675  0.199E+00  0.664E-01  0.664E-01  0.664E-01
   9.695  0.200E+00  0.667E-01  0.667E-01  0.667E-01
   9.715  0.201E+00  0.670E-01  0.670E-01  0.670E-01
   9.735  0.202E+00  0.673E-01  0.673E-01  0.673E-01
   9.755  0.203E+00  0.677E-01  0.677E-01  0.677E-01
   9.775  0.204E+00  0.680E-01  0.680E-01  0.680E-01
   9.795  0.205E+00  0.683E-01  0.683E-01  0.683E-01
   9.815  0.206E+00  0.686E-01  0.686E-01  0.686E-01
   9.835  0.207E+00  0.690E-01  0.690E-01  0.690E-01
   9.855  0.208E+00  0.693E-01  0.693E-01  0.693E-01
   9.875  0.209E+00  0.697E-01  0.697E-01  0.697E-01
   9.895  0.210E+00  0.701E-01  0.701E-01  0.701E-01
   9.915  0.211E+00  0.705E-01  0.705E-01  0.705E-01
   9.935  0.213E+00  0.709E-01  0.709E-01  0.709E-01
   9.955  0.214E+00  0.713E-01  0.713E-01  0.713E-01
   9.975  0.215E+00  0.718E-01  0.718E-01  0.718E-01
   9.995  0.217E+00  0.722E-01  0.722E-01  0.722E-01
  10.015  0.218E+00  0.727E-01  0.727E-01  0.727E-01
  10.035  0.219E+00  0.731E-01  0.731E-01  0.731E-01
  10.055  0.221E+00  0.736E-01  0.736E-01  0.736E-01
  10.075  0.222E+00  0.741E-01  0.741E-01  0.741E-01
  10.095  0.224E+00  0.746E-01  0.746E-01  0.746E-01
  10.115  0.225E+00  0.750E-01  0.750E-01  0.750E-01
  10.135  0.226E+00  0.755E-01  0.755E-01  0.755E-01
  10.155  0.228E+00  0.759E-01  0.759E-01  0.759E-01
  10.175  0.229E+00  0.764E-01  0.764E-01  0.764E-01
  10.195  0.230E+00  0.768E-01  0.768E-01  0.768E-01
  10.215  0.232E+00  0.772E-01  0.772E-01  0.772E-01
  10.235  0.233E+00  0.776E-01  0.776E-01  0.776E-01
  10.255  0.234E+00  0.780E-01  0.780E-01  0.780E-01
  10.275  0.235E+00  0.783E-01  0.783E-01  0.783E-01
  10.295  0.236E+00  0.787E-01  0.787E-01  0.787E-01
  10.315  0.237E+00  0.790E-01  0.790E-01  0.790E-01
  10.335  0.238E+00  0.793E-01  0.793E-01  0.793E-01
  10.355  0.239E+00  0.795E-01  0.795E-01  0.795E-01
  10.375  0.239E+00  0.798E-01  0.798E-01  0.798E-01
  10.395  0.240E+00  0.801E-01  0.801E-01  0.801E-01
  10.415  0.241E+00  0.803E-01  0.803E-01  0.803E-01
  10.435  0.242E+00  0.805E-01  0.805E-01  0.805E-01
  10.455  0.242E+00  0.808E-01  0.808E-01  0.808E-01
  10.475  0.243E+00  0.810E-01  0.810E-01  0.810E-01
  10.495  0.244E+00  0.812E-01  0.812E-01  0.812E-01
  10.515  0.244E+00  0.815E-01  0.815E-01  0.815E-01
  10.535  0.245E+00  0.817E-01  0.817E-01  0.817E-01
  10.555  0.246E+00  0.820E-01  0.820E-01  0.820E-01
  10.575  0.247E+00  0.823E-01  0.823E-01  0.823E-01
  10.595  0.248E+00  0.826E-01  0.826E-01  0.826E-01
  10.615  0.249E+00  0.829E-01  0.829E-01  0.829E-01
  10.635  0.250E+00  0.833E-01  0.833E-01  0.833E-01
  10.655  0.251E+00  0.836E-01  0.836E-01  0.836E-01
  10.675  0.252E+00  0.840E-01  0.840E-01  0.840E-01
  10.695  0.253E+00  0.844E-01  0.844E-01  0.844E-01
  10.715  0.254E+00  0.848E-01  0.848E-01  0.848E-01
  10.735  0.256E+00  0.853E-01  0.853E-01  0.853E-01
  10.755  0.257E+00  0.857E-01  0.857E-01  0.857E-01
  10.775  0.258E+00  0.861E-01  0.861E-01  0.861E-01
  10.795  0.260E+00  0.865E-01  0.865E-01  0.865E-01
  10.815  0.261E+00  0.870E-01  0.870E-01  0.870E-01
  10.835  0.262E+00  0.874E-01  0.874E-01  0.874E-01
  10.855  0.263E+00  0.878E-01  0.878E-01  0.878E-01
  10.875  0.264E+00  0.881E-01  0.881E-01  0.881E-01
  10.895  0.265E+00  0.884E-01  0.884E-01  0.884E-01
  10.915  0.266E+00  0.887E-01  0.887E-01  0.887E-01
  10.935  0.267E+00  0.890E-01  0.890E-01  0.890E-01
  10.955  0.268E+00  0.892E-01  0.892E-01  0.892E-01
  10.975  0.268E+00  0.893E-01  0.893E-01  0.893E-01
  10.995  0.268E+00  0.894E-01  0.894E-01  0.894E-01
  11.015  0.268E+00  0.894E-01  0.894E-01  0.894E-01
  11.035  0.268E+00  0.894E-01  0.894E-01  0.894E-01
  11.055  0.268E+00  0.892E-01  0.892E-01  0.892E-01
  11.075  0.267E+00  0.891E-01  0.891E-01  0.891E-01
  11.095  0.266E+00  0.888E-01  0.888E-01  0.888E-01
  11.115  0.265E+00  0.885E-01  0.885E-01  0.885E-01
  11.135  0.264E+00  0.881E-01  0.881E-01  0.881E-01
  11.155  0.263E+00  0.877E-01  0.877E-01  0.877E-01
  11.175  0.261E+00  0.872E-01  0.872E-01  0.872E-01
  11.195  0.260E+00  0.866E-01  0.866E-01  0.866E-01
  11.215  0.258E+00  0.860E-01  0.860E-01  0.860E-01
  11.235  0.256E+00  0.854E-01  0.854E-01  0.854E-01
  11.255  0.254E+00  0.847E-01  0.847E-01  0.847E-01
  11.275  0.252E+00  0.841E-01  0.841E-01  0.841E-01
  11.295  0.250E+00  0.834E-01  0.834E-01  0.834E-01
  11.315  0.248E+00  0.827E-01  0.827E-01  0.827E-01
  11.335  0.246E+00  0.820E-01  0.820E-01  0.820E-01
  11.355  0.244E+00  0.813E-01  0.813E-01  0.813E-01
  11.375  0.242E+00  0.807E-01  0.807E-01  0.807E-01
  11.395  0.240E+00  0.801E-01  0.801E-01  0.801E-01
  11.415  0.239E+00  0.796E-01  0.796E-01  0.796E-01
  11.435  0.237E+00  0.791E-01  0.791E-01  0.791E-01
  11.455  0.236E+00  0.786E-01  0.786E-01  0.786E-01
  11.475  0.235E+00  0.783E-01  0.783E-01  0.783E-01
  11.495  0.234E+00  0.780E-01  0.780E-01  0.780E-01
  11.515  0.233E+00  0.778E-01  0.778E-01  0.778E-01
  11.535  0.233E+00  0.776E-01  0.776E-01  0.776E-01
  11.555  0.233E+00  0.776E-01  0.776E-01  0.776E-01
  11.575  0.233E+00  0.776E-01  0.776E-01  0.776E-01
  11.595  0.233E+00  0.777E-01  0.777E-01  0.777E-01
  11.615  0.234E+00  0.779E-01  0.779E-01  0.779E-01
  11.635  0.234E+00  0.781E-01  0.781E-01  0.781E-01
  11.655  0.235E+00  0.785E-01  0.785E-01  0.785E-01
  11.675  0.237E+00  0.789E-01  0.789E-01  0.789E-01
  11.695  0.238E+00  0.793E-01  0.793E-01  0.793E-01
  11.715  0.239E+00  0.798E-01  0.798E-01  0.798E-01
  11.735  0.241E+00  0.804E-01  0.804E-01  0.804E-01
  11.755  0.243E+00  0.809E-01  0.809E-01  0.809E-01
  11.775  0.245E+00  0.815E-01  0.815E-01  0.815E-01
  11.795  0.247E+00  0.822E-01  0.822E-01  0.822E-01
  11.815  0.248E+00  0.828E-01  0.828E-01  0.828E-01
  11.835  0.250E+00  0.834E-01  0.834E-01  0.834E-01
  11.855  0.252E+00  0.841E-01  0.841E-01  0.841E-01
  11.875  0.254E+00  0.847E-01  0.847E-01  0.847E-01
  11.895  0.256E+00  0.853E-01  0.853E-01  0.853E-01
  11.915  0.258E+00  0.859E-01  0.859E-01  0.859E-01
  11.935  0.259E+00  0.865E-01  0.865E-01  0.865E-01
  11.955  0.261E+00  0.870E-01  0.870E-01  0.870E-01
  11.975  0.263E+00  0.876E-01  0.876E-01  0.876E-01
  11.995  0.264E+00  0.881E-01  0.881E-01  0.881E-01
  12.015  0.266E+00  0.886E-01  0.886E-01  0.886E-01
  12.035  0.267E+00  0.891E-01  0.891E-01  0.891E-01
  12.055  0.269E+00  0.895E-01  0.895E-01  0.895E-01
  12.075  0.270E+00  0.900E-01  0.900E-01  0.900E-01
  12.095  0.272E+00  0.905E-01  0.905E-01  0.905E-01
  12.115  0.273E+00  0.911E-01  0.911E-01  0.911E-01
  12.135  0.275E+00  0.916E-01  0.916E-01  0.916E-01
  12.155  0.277E+00  0.922E-01  0.922E-01  0.922E-01
  12.175  0.279E+00  0.928E-01  0.928E-01  0.928E-01
  12.195  0.281E+00  0.935E-01  0.935E-01  0.935E-01
  12.215  0.283E+00  0.943E-01  0.943E-01  0.943E-01
  12.235  0.285E+00  0.951E-01  0.951E-01  0.951E-01
  12.255  0.288E+00  0.960E-01  0.960E-01  0.960E-01
  12.275  0.291E+00  0.970E-01  0.970E-01  0.970E-01
  12.295  0.294E+00  0.980E-01  0.980E-01  0.980E-01
  12.315  0.297E+00  0.992E-01  0.992E-01  0.992E-01
  12.335  0.301E+00  0.100E+00  0.100E+00  0.100E+00
  12.355  0.305E+00  0.102E+00  0.102E+00  0.102E+00
  12.375  0.309E+00  0.103E+00  0.103E+00  0.103E+00
  12.395  0.313E+00  0.104E+00  0.104E+00  0.104E+00
  12.415  0.317E+00  0.106E+00  0.106E+00  0.106E+00
  12.435  0.322E+00  0.107E+00  0.107E+00  0.107E+00
  12.455  0.326E+00  0.109E+00  0.109E+00  0.109E+00
  12.475  0.331E+00  0.110E+00  0.110E+00  0.110E+00
  12.495  0.335E+00  0.112E+00  0.112E+00  0.112E+00
  12.515  0.340E+00  0.113E+00  0.113E+00  0.113E+00
  12.535  0.344E+00  0.115E+00  0.115E+00  0.115E+00
  12.555  0.348E+00  0.116E+00  0.116E+00  0.116E+00
  12.575  0.352E+00  0.117E+00  0.117E+00  0.117E+00
  12.595  0.355E+00  0.118E+00  0.118E+00  0.118E+00
  12.615  0.359E+00  0.120E+00  0.120E+00  0.120E+00
  12.635  0.362E+00  0.121E+00  0.121E+00  0.121E+00
  12.655  0.364E+00  0.121E+00  0.121E+00  0.121E+00
  12.675  0.367E+00  0.122E+00  0.122E+00  0.122E+00
  12.695  0.368E+00  0.123E+00  0.123E+00  0.123E+00
  12.715  0.370E+00  0.123E+00  0.123E+00  0.123E+00
  12.735  0.371E+00  0.124E+00  0.124E+00  0.124E+00
  12.755  0.371E+00  0.124E+00  0.124E+00  0.124E+00
  12.775  0.372E+00  0.124E+00  0.124E+00  0.124E+00
  12.795  0.371E+00  0.124E+00  0.124E+00  0.124E+00
  12.815  0.371E+00  0.124E+00  0.124E+00  0.124E+00
  12.835  0.370E+00  0.123E+00  0.123E+00  0.123E+00
  12.855  0.369E+00  0.123E+00  0.123E+00  0.123E+00
  12.875  0.367E+00  0.122E+00  0.122E+00  0.122E+00
  12.895  0.366E+00  0.122E+00  0.122E+00  0.122E+00
  12.915  0.364E+00  0.121E+00  0.121E+00  0.121E+00
  12.935  0.362E+00  0.121E+00  0.121E+00  0.121E+00
  12.955  0.359E+00  0.120E+00  0.120E+00  0.120E+00
  12.975  0.357E+00  0.119E+00  0.119E+00  0.119E+00
  12.995  0.355E+00  0.118E+00  0.118E+00  0.118E+00
  13.015  0.353E+00  0.118E+00  0.118E+00  0.118E+00
  13.035  0.350E+00  0.117E+00  0.117E+00  0.117E+00
  13.055  0.348E+00  0.116E+00  0.116E+00  0.116E+00
  13.075  0.346E+00  0.115E+00  0.115E+00  0.115E+00
  13.095  0.344E+00  0.115E+00  0.115E+00  0.115E+00
  13.115  0.342E+00  0.114E+00  0.114E+00  0.114E+00
  13.135  0.340E+00  0.113E+00  0.113E+00  0.113E+00
  13.155  0.338E+00  0.113E+00  0.113E+00  0.113E+00
  13.175  0.336E+00  0.112E+00  0.112E+00  0.112E+00
  13.195  0.335E+00  0.112E+00  0.112E+00  0.112E+00
  13.215  0.333E+00  0.111E+00  0.111E+00  0.111E+00
  13.235  0.332E+00  0.111E+00  0.111E+00  0.111E+00
  13.255  0.330E+00  0.110E+00  0.110E+00  0.110E+00
  13.275  0.329E+00  0.110E+00  0.110E+00  0.110E+00
  13.295  0.327E+00  0.109E+00  0.109E+00  0.109E+00
  13.315  0.326E+00  0.109E+00  0.109E+00  0.109E+00
  13.335  0.324E+00  0.108E+00  0.108E+00  0.108E+00
  13.355  0.322E+00  0.107E+00  0.107E+00  0.107E+00
  13.375  0.320E+00  0.107E+00  0.107E+00  0.107E+00
  13.395  0.318E+00  0.106E+00  0.106E+00  0.106E+00
  13.415  0.316E+00  0.105E+00  0.105E+00  0.105E+00
  13.435  0.313E+00  0.104E+00  0.104E+00  0.104E+00
  13.455  0.311E+00  0.104E+00  0.104E+00  0.104E+00
  13.475  0.308E+00  0.103E+00  0.103E+00  0.103E+00
  13.495  0.305E+00  0.102E+00  0.102E+00  0.102E+00
  13.515  0.301E+00  0.100E+00  0.100E+00  0.100E+00
  13.535  0.298E+00  0.992E-01  0.992E-01  0.992E-01
  13.555  0.294E+00  0.980E-01  0.980E-01  0.980E-01
  13.575  0.290E+00  0.967E-01  0.967E-01  0.967E-01
  13.595  0.286E+00  0.953E-01  0.953E-01  0.953E-01
  13.615  0.282E+00  0.939E-01  0.939E-01  0.939E-01
  13.635  0.277E+00  0.924E-01  0.924E-01  0.924E-01
  13.655  0.273E+00  0.909E-01  0.909E-01  0.909E-01
  13.675  0.268E+00  0.893E-01  0.893E-01  0.893E-01
  13.695  0.263E+00  0.878E-01  0.878E-01  0.878E-01
  13.715  0.259E+00  0.862E-01  0.862E-01  0.862E-01
  13.735  0.254E+00  0.846E-01  0.846E-01  0.846E-01
  13.755  0.249E+00  0.831E-01  0.831E-01  0.831E-01
  13.775  0.245E+00  0.815E-01  0.815E-01  0.815E-01
  13.795  0.240E+00  0.800E-01  0.800E-01  0.800E-01
  13.815  0.235E+00  0.785E-01  0.785E-01  0.785E-01
  13.835  0.231E+00  0.770E-01  0.770E-01  0.770E-01
  13.855  0.227E+00  0.756E-01  0.756E-01  0.756E-01
  13.875  0.222E+00  0.742E-01  0.742E-01  0.742E-01
  13.895  0.218E+00  0.728E-01  0.728E-01  0.728E-01
  13.915  0.214E+00  0.715E-01  0.715E-01  0.715E-01
  13.935  0.211E+00  0.702E-01  0.702E-01  0.702E-01
  13.955  0.207E+00  0.690E-01  0.690E-01  0.690E-01
  13.975  0.203E+00  0.678E-01  0.678E-01  0.678E-01
  13.995  0.200E+00  0.667E-01  0.667E-01  0.667E-01
  14.015  0.197E+00  0.656E-01  0.656E-01  0.656E-01
  14.035  0.194E+00  0.645E-01  0.645E-01  0.645E-01
  14.055  0.191E+00  0.635E-01  0.635E-01  0.635E-01
  14.075  0.188E+00  0.626E-01  0.626E-01  0.626E-01
  14.095  0.185E+00  0.616E-01  0.616E-01  0.616E-01
  14.115  0.182E+00  0.607E-01  0.607E-01  0.607E-01
  14.135  0.180E+00  0.599E-01  0.599E-01  0.599E-01
  14.155  0.177E+00  0.590E-01  0.590E-01  0.590E-01
  14.175  0.175E+00  0.582E-01  0.582E-01  0.582E-01
  14.195  0.172E+00  0.574E-01  0.574E-01  0.574E-01
  14.215  0.170E+00  0.567E-01  0.567E-01  0.567E-01
  14.235  0.168E+00  0.559E-01  0.559E-01  0.559E-01
  14.255  0.166E+00  0.552E-01  0.552E-01  0.552E-01
  14.275  0.163E+00  0.544E-01  0.544E-01  0.544E-01
  14.295  0.161E+00  0.537E-01  0.537E-01  0.537E-01
  14.315  0.159E+00  0.530E-01  0.530E-01  0.530E-01
  14.335  0.157E+00  0.523E-01  0.523E-01  0.523E-01
  14.355  0.155E+00  0.517E-01  0.517E-01  0.517E-01
  14.375  0.153E+00  0.510E-01  0.510E-01  0.510E-01
  14.395  0.151E+00  0.503E-01  0.503E-01  0.503E-01
  14.415  0.149E+00  0.497E-01  0.497E-01  0.497E-01
  14.435  0.147E+00  0.490E-01  0.490E-01  0.490E-01
  14.455  0.145E+00  0.484E-01  0.484E-01  0.484E-01
  14.475  0.143E+00  0.478E-01  0.478E-01  0.478E-01
  14.495  0.141E+00  0.471E-01  0.471E-01  0.471E-01
  14.515  0.140E+00  0.465E-01  0.465E-01  0.465E-01
  14.535  0.138E+00  0.459E-01  0.459E-01  0.459E-01
  14.555  0.136E+00  0.453E-01  0.453E-01  0.453E-01
  14.575  0.134E+00  0.448E-01  0.448E-01  0.448E-01
  14.595  0.133E+00  0.442E-01  0.442E-01  0.442E-01
  14.615  0.131E+00  0.436E-01  0.436E-01  0.436E-01
  14.635  0.129E+00  0.431E-01  0.431E-01  0.431E-01
  14.655  0.128E+00  0.426E-01  0.426E-01  0.426E-01
  14.675  0.126E+00  0.421E-01  0.421E-01  0.421E-01
  14.695  0.125E+00  0.416E-01  0.416E-01  0.416E-01
  14.715  0.123E+00  0.411E-01  0.411E-01  0.411E-01
  14.735  0.122E+00  0.406E-01  0.406E-01  0.406E-01
  14.755  0.120E+00  0.401E-01  0.401E-01  0.401E-01
  14.775  0.119E+00  0.397E-01  0.397E-01  0.397E-01
  14.795  0.118E+00  0.392E-01  0.392E-01  0.392E-01
  14.815  0.116E+00  0.388E-01  0.388E-01  0.388E-01
  14.835  0.115E+00  0.384E-01  0.384E-01  0.384E-01
  14.855  0.114E+00  0.379E-01  0.379E-01  0.379E-01
  14.875  0.113E+00  0.375E-01  0.375E-01  0.375E-01
  14.895  0.111E+00  0.371E-01  0.371E-01  0.371E-01
  14.915  0.110E+00  0.367E-01  0.367E-01  0.367E-01
  14.935  0.109E+00  0.363E-01  0.363E-01  0.363E-01
  14.955  0.108E+00  0.359E-01  0.359E-01  0.359E-01
  14.975  0.106E+00  0.354E-01  0.354E-01  0.354E-01
  14.995  0.105E+00  0.350E-01  0.350E-01  0.350E-01
  15.015  0.104E+00  0.346E-01  0.346E-01  0.346E-01
  15.035  0.102E+00  0.342E-01  0.342E-01  0.342E-01
  15.055  0.101E+00  0.337E-01  0.337E-01  0.337E-01
  15.075  0.999E-01  0.333E-01  0.333E-01  0.333E-01
  15.095  0.986E-01  0.329E-01  0.329E-01  0.329E-01
  15.115  0.973E-01  0.324E-01  0.324E-01  0.324E-01
  15.135  0.960E-01  0.320E-01  0.320E-01  0.320E-01
  15.155  0.947E-01  0.316E-01  0.316E-01  0.316E-01
  15.175  0.934E-01  0.311E-01  0.311E-01  0.311E-01
  15.195  0.920E-01  0.307E-01  0.307E-01  0.307E-01
  15.215  0.908E-01  0.303E-01  0.303E-01  0.303E-01
  15.235  0.895E-01  0.298E-01  0.298E-01  0.298E-01
  15.255  0.882E-01  0.294E-01  0.294E-01  0.294E-01
  15.275  0.870E-01  0.290E-01  0.290E-01  0.290E-01
  15.295  0.858E-01  0.286E-01  0.286E-01  0.286E-01
  15.315  0.846E-01  0.282E-01  0.282E-01  0.282E-01
  15.335  0.834E-01  0.278E-01  0.278E-01  0.278E-01
  15.355  0.823E-01  0.274E-01  0.274E-01  0.274E-01
  15.375  0.813E-01  0.271E-01  0.271E-01  0.271E-01
  15.395  0.803E-01  0.268E-01  0.268E-01  0.268E-01
  15.415  0.793E-01  0.264E-01  0.264E-01  0.264E-01
  15.435  0.784E-01  0.261E-01  0.261E-01  0.261E-01
  15.455  0.775E-01  0.258E-01  0.258E-01  0.258E-01
  15.475  0.767E-01  0.256E-01  0.256E-01  0.256E-01
  15.495  0.760E-01  0.253E-01  0.253E-01  0.253E-01
  15.515  0.753E-01  0.251E-01  0.251E-01  0.251E-01
  15.535  0.747E-01  0.249E-01  0.249E-01  0.249E-01
  15.555  0.741E-01  0.247E-01  0.247E-01  0.247E-01
  15.575  0.735E-01  0.245E-01  0.245E-01  0.245E-01
  15.595  0.731E-01  0.244E-01  0.244E-01  0.244E-01
  15.615  0.726E-01  0.242E-01  0.242E-01  0.242E-01
  15.635  0.722E-01  0.241E-01  0.241E-01  0.241E-01
  15.655  0.719E-01  0.240E-01  0.240E-01  0.240E-01
  15.675  0.716E-01  0.239E-01  0.239E-01  0.239E-01
  15.695  0.713E-01  0.238E-01  0.238E-01  0.238E-01
  15.715  0.710E-01  0.237E-01  0.237E-01  0.237E-01
  15.735  0.708E-01  0.236E-01  0.236E-01  0.236E-01
  15.755  0.706E-01  0.235E-01  0.235E-01  0.235E-01
  15.775  0.704E-01  0.235E-01  0.235E-01  0.235E-01
  15.795  0.703E-01  0.234E-01  0.234E-01  0.234E-01
  15.815  0.701E-01  0.234E-01  0.234E-01  0.234E-01
  15.835  0.700E-01  0.233E-01  0.233E-01  0.233E-01
  15.855  0.699E-01  0.233E-01  0.233E-01  0.233E-01
  15.875  0.697E-01  0.232E-01  0.232E-01  0.232E-01
  15.895  0.696E-01  0.232E-01  0.232E-01  0.232E-01
  15.915  0.695E-01  0.232E-01  0.232E-01  0.232E-01
  15.935  0.694E-01  0.231E-01  0.231E-01  0.231E-01
  15.955  0.692E-01  0.231E-01  0.231E-01  0.231E-01
  15.975  0.690E-01  0.230E-01  0.230E-01  0.230E-01
  15.995  0.689E-01  0.230E-01  0.230E-01  0.230E-01
  16.015  0.686E-01  0.229E-01  0.229E-01  0.229E-01
  16.035  0.684E-01  0.228E-01  0.228E-01  0.228E-01
  16.055  0.681E-01  0.227E-01  0.227E-01  0.227E-01
  16.075  0.679E-01  0.226E-01  0.226E-01  0.226E-01
  16.095  0.675E-01  0.225E-01  0.225E-01  0.225E-01
  16.115  0.672E-01  0.224E-01  0.224E-01  0.224E-01
  16.135  0.668E-01  0.223E-01  0.223E-01  0.223E-01
  16.155  0.663E-01  0.221E-01  0.221E-01  0.221E-01
  16.175  0.658E-01  0.219E-01  0.219E-01  0.219E-01
  16.195  0.653E-01  0.218E-01  0.218E-01  0.218E-01
  16.215  0.647E-01  0.216E-01  0.216E-01  0.216E-01
  16.235  0.641E-01  0.214E-01  0.214E-01  0.214E-01
  16.255  0.635E-01  0.212E-01  0.212E-01  0.212E-01
  16.275  0.628E-01  0.209E-01  0.209E-01  0.209E-01
  16.295  0.621E-01  0.207E-01  0.207E-01  0.207E-01
  16.315  0.613E-01  0.204E-01  0.204E-01  0.204E-01
  16.335  0.605E-01  0.202E-01  0.202E-01  0.202E-01
  16.355  0.597E-01  0.199E-01  0.199E-01  0.199E-01
  16.375  0.589E-01  0.196E-01  0.196E-01  0.196E-01
  16.395  0.580E-01  0.193E-01  0.193E-01  0.193E-01
  16.415  0.572E-01  0.191E-01  0.191E-01  0.191E-01
  16.435  0.563E-01  0.188E-01  0.188E-01  0.188E-01
  16.455  0.555E-01  0.185E-01  0.185E-01  0.185E-01
  16.475  0.546E-01  0.182E-01  0.182E-01  0.182E-01
  16.495  0.538E-01  0.179E-01  0.179E-01  0.179E-01
  16.515  0.530E-01  0.177E-01  0.177E-01  0.177E-01
  16.535  0.522E-01  0.174E-01  0.174E-01  0.174E-01
  16.555  0.514E-01  0.171E-01  0.171E-01  0.171E-01
  16.575  0.507E-01  0.169E-01  0.169E-01  0.169E-01
  16.595  0.500E-01  0.167E-01  0.167E-01  0.167E-01
  16.615  0.494E-01  0.165E-01  0.165E-01  0.165E-01
  16.635  0.488E-01  0.163E-01  0.163E-01  0.163E-01
  16.655  0.483E-01  0.161E-01  0.161E-01  0.161E-01
  16.675  0.478E-01  0.159E-01  0.159E-01  0.159E-01
  16.695  0.474E-01  0.158E-01  0.158E-01  0.158E-01
  16.715  0.471E-01  0.157E-01  0.157E-01  0.157E-01
  16.735  0.468E-01  0.156E-01  0.156E-01  0.156E-01
  16.755  0.466E-01  0.155E-01  0.155E-01  0.155E-01
  16.775  0.464E-01  0.155E-01  0.155E-01  0.155E-01
  16.795  0.462E-01  0.154E-01  0.154E-01  0.154E-01
  16.815  0.462E-01  0.154E-01  0.154E-01  0.154E-01
  16.835  0.461E-01  0.154E-01  0.154E-01  0.154E-01
  16.855  0.461E-01  0.154E-01  0.154E-01  0.154E-01
  16.875  0.462E-01  0.154E-01  0.154E-01  0.154E-01
  16.895  0.463E-01  0.154E-01  0.154E-01  0.154E-01
  16.915  0.464E-01  0.155E-01  0.155E-01  0.155E-01
  16.935  0.465E-01  0.155E-01  0.155E-01  0.155E-01
  16.955  0.466E-01  0.155E-01  0.155E-01  0.155E-01
  16.975  0.468E-01  0.156E-01  0.156E-01  0.156E-01
  16.995  0.470E-01  0.157E-01  0.157E-01  0.157E-01
  17.015  0.471E-01  0.157E-01  0.157E-01  0.157E-01
  17.035  0.473E-01  0.158E-01  0.158E-01  0.158E-01
  17.055  0.475E-01  0.158E-01  0.158E-01  0.158E-01
  17.075  0.476E-01  0.159E-01  0.159E-01  0.159E-01
  17.095  0.478E-01  0.159E-01  0.159E-01  0.159E-01
  17.115  0.479E-01  0.160E-01  0.160E-01  0.160E-01
  17.135  0.480E-01  0.160E-01  0.160E-01  0.160E-01
  17.155  0.481E-01  0.160E-01  0.160E-01  0.160E-01
  17.175  0.483E-01  0.161E-01  0.161E-01  0.161E-01
  17.195  0.483E-01  0.161E-01  0.161E-01  0.161E-01
  17.215  0.484E-01  0.161E-01  0.161E-01  0.161E-01
  17.235  0.485E-01  0.162E-01  0.162E-01  0.162E-01
  17.255  0.486E-01  0.162E-01  0.162E-01  0.162E-01
  17.275  0.487E-01  0.162E-01  0.162E-01  0.162E-01
  17.295  0.487E-01  0.162E-01  0.162E-01  0.162E-01
  17.315  0.488E-01  0.163E-01  0.163E-01  0.163E-01
  17.335  0.489E-01  0.163E-01  0.163E-01  0.163E-01
  17.355  0.489E-01  0.163E-01  0.163E-01  0.163E-01
  17.375  0.490E-01  0.163E-01  0.163E-01  0.163E-01
  17.395  0.491E-01  0.164E-01  0.164E-01  0.164E-01
  17.415  0.492E-01  0.164E-01  0.164E-01  0.164E-01
  17.435  0.493E-01  0.164E-01  0.164E-01  0.164E-01
  17.455  0.494E-01  0.165E-01  0.165E-01  0.165E-01
  17.475  0.495E-01  0.165E-01  0.165E-01  0.165E-01
  17.495  0.496E-01  0.165E-01  0.165E-01  0.165E-01
  17.515  0.497E-01  0.166E-01  0.166E-01  0.166E-01
  17.535  0.499E-01  0.166E-01  0.166E-01  0.166E-01
  17.555  0.500E-01  0.167E-01  0.167E-01  0.167E-01
  17.575  0.502E-01  0.167E-01  0.167E-01  0.167E-01
  17.595  0.504E-01  0.168E-01  0.168E-01  0.168E-01
  17.615  0.506E-01  0.169E-01  0.169E-01  0.169E-01
  17.635  0.508E-01  0.169E-01  0.169E-01  0.169E-01
  17.655  0.510E-01  0.170E-01  0.170E-01  0.170E-01
  17.675  0.512E-01  0.171E-01  0.171E-01  0.171E-01
  17.695  0.514E-01  0.171E-01  0.171E-01  0.171E-01
  17.715  0.517E-01  0.172E-01  0.172E-01  0.172E-01
  17.735  0.519E-01  0.173E-01  0.173E-01  0.173E-01
  17.755  0.521E-01  0.174E-01  0.174E-01  0.174E-01
  17.775  0.524E-01  0.175E-01  0.175E-01  0.175E-01
  17.795  0.526E-01  0.175E-01  0.175E-01  0.175E-01
  17.815  0.529E-01  0.176E-01  0.176E-01  0.176E-01
  17.835  0.531E-01  0.177E-01  0.177E-01  0.177E-01
  17.855  0.533E-01  0.178E-01  0.178E-01  0.178E-01
  17.875  0.536E-01  0.179E-01  0.179E-01  0.179E-01
  17.895  0.538E-01  0.179E-01  0.179E-01  0.179E-01
  17.915  0.540E-01  0.180E-01  0.180E-01  0.180E-01
  17.935  0.541E-01  0.180E-01  0.180E-01  0.180E-01
  17.955  0.543E-01  0.181E-01  0.181E-01  0.181E-01
  17.975  0.544E-01  0.181E-01  0.181E-01  0.181E-01
  17.995  0.545E-01  0.182E-01  0.182E-01  0.182E-01
  18.015  0.546E-01  0.182E-01  0.182E-01  0.182E-01
  18.035  0.546E-01  0.182E-01  0.182E-01  0.182E-01
  18.055  0.546E-01  0.182E-01  0.182E-01  0.182E-01
  18.075  0.546E-01  0.182E-01  0.182E-01  0.182E-01
  18.095  0.545E-01  0.182E-01  0.182E-01  0.182E-01
  18.115  0.544E-01  0.181E-01  0.181E-01  0.181E-01
  18.135  0.542E-01  0.181E-01  0.181E-01  0.181E-01
  18.155  0.540E-01  0.180E-01  0.180E-01  0.180E-01
  18.175  0.538E-01  0.179E-01  0.179E-01  0.179E-01
  18.195  0.535E-01  0.178E-01  0.178E-01  0.178E-01
  18.215  0.532E-01  0.177E-01  0.177E-01  0.177E-01
  18.235  0.528E-01  0.176E-01  0.176E-01  0.176E-01
  18.255  0.525E-01  0.175E-01  0.175E-01  0.175E-01
  18.275  0.521E-01  0.174E-01  0.174E-01  0.174E-01
  18.295  0.517E-01  0.172E-01  0.172E-01  0.172E-01
  18.315  0.512E-01  0.171E-01  0.171E-01  0.171E-01
  18.335  0.508E-01  0.169E-01  0.169E-01  0.169E-01
  18.355  0.504E-01  0.168E-01  0.168E-01  0.168E-01
  18.375  0.499E-01  0.166E-01  0.166E-01  0.166E-01
  18.395  0.495E-01  0.165E-01  0.165E-01  0.165E-01
  18.415  0.491E-01  0.164E-01  0.164E-01  0.164E-01
  18.435  0.487E-01  0.162E-01  0.162E-01  0.162E-01
  18.455  0.484E-01  0.161E-01  0.161E-01  0.161E-01
  18.475  0.480E-01  0.160E-01  0.160E-01  0.160E-01
  18.495  0.478E-01  0.159E-01  0.159E-01  0.159E-01
  18.515  0.475E-01  0.158E-01  0.158E-01  0.158E-01
  18.535  0.473E-01  0.158E-01  0.158E-01  0.158E-01
  18.555  0.471E-01  0.157E-01  0.157E-01  0.157E-01
  18.575  0.470E-01  0.157E-01  0.157E-01  0.157E-01
  18.595  0.469E-01  0.156E-01  0.156E-01  0.156E-01
  18.615  0.469E-01  0.156E-01  0.156E-01  0.156E-01
  18.635  0.469E-01  0.156E-01  0.156E-01  0.156E-01
  18.655  0.469E-01  0.156E-01  0.156E-01  0.156E-01
  18.675  0.469E-01  0.156E-01  0.156E-01  0.156E-01
  18.695  0.470E-01  0.157E-01  0.157E-01  0.157E-01
  18.715  0.470E-01  0.157E-01  0.157E-01  0.157E-01
  18.735  0.470E-01  0.157E-01  0.157E-01  0.157E-01
  18.755  0.471E-01  0.157E-01  0.157E-01  0.157E-01
  18.775  0.471E-01  0.157E-01  0.157E-01  0.157E-01
  18.795  0.470E-01  0.157E-01  0.157E-01  0.157E-01
  18.815  0.469E-01  0.156E-01  0.156E-01  0.156E-01
  18.835  0.468E-01  0.156E-01  0.156E-01  0.156E-01
  18.855  0.466E-01  0.155E-01  0.155E-01  0.155E-01
  18.875  0.463E-01  0.154E-01  0.154E-01  0.154E-01
  18.895  0.460E-01  0.153E-01  0.153E-01  0.153E-01
  18.915  0.456E-01  0.152E-01  0.152E-01  0.152E-01
  18.935  0.451E-01  0.150E-01  0.150E-01  0.150E-01
  18.955  0.445E-01  0.148E-01  0.148E-01  0.148E-01
  18.975  0.439E-01  0.146E-01  0.146E-01  0.146E-01
  18.995  0.432E-01  0.144E-01  0.144E-01  0.144E-01
  19.015  0.425E-01  0.142E-01  0.142E-01  0.142E-01
  19.035  0.416E-01  0.139E-01  0.139E-01  0.139E-01
  19.055  0.408E-01  0.136E-01  0.136E-01  0.136E-01
  19.075  0.399E-01  0.133E-01  0.133E-01  0.133E-01
  19.095  0.389E-01  0.130E-01  0.130E-01  0.130E-01
  19.115  0.380E-01  0.127E-01  0.127E-01  0.127E-01
  19.135  0.371E-01  0.124E-01  0.124E-01  0.124E-01
  19.155  0.361E-01  0.120E-01  0.120E-01  0.120E-01
  19.175  0.352E-01  0.117E-01  0.117E-01  0.117E-01
  19.195  0.343E-01  0.114E-01  0.114E-01  0.114E-01
  19.215  0.335E-01  0.112E-01  0.112E-01  0.112E-01
  19.235  0.327E-01  0.109E-01  0.109E-01  0.109E-01
  19.255  0.320E-01  0.107E-01  0.107E-01  0.107E-01
  19.275  0.313E-01  0.104E-01  0.104E-01  0.104E-01
  19.295  0.308E-01  0.103E-01  0.103E-01  0.103E-01
  19.315  0.303E-01  0.101E-01  0.101E-01  0.101E-01
  19.335  0.299E-01  0.997E-02  0.997E-02  0.997E-02
  19.355  0.296E-01  0.987E-02  0.987E-02  0.987E-02
  19.375  0.294E-01  0.981E-02  0.981E-02  0.981E-02
  19.395  0.293E-01  0.977E-02  0.977E-02  0.977E-02
  19.415  0.293E-01  0.977E-02  0.977E-02  0.977E-02
  19.435  0.294E-01  0.979E-02  0.979E-02  0.979E-02
  19.455  0.295E-01  0.985E-02  0.985E-02  0.985E-02
  19.475  0.298E-01  0.992E-02  0.992E-02  0.992E-02
  19.495  0.301E-01  0.100E-01  0.100E-01  0.100E-01
  19.515  0.304E-01  0.101E-01  0.101E-01  0.101E-01
  19.535  0.308E-01  0.103E-01  0.103E-01  0.103E-01
  19.555  0.313E-01  0.104E-01  0.104E-01  0.104E-01
  19.575  0.317E-01  0.106E-01  0.106E-01  0.106E-01
  19.595  0.322E-01  0.107E-01  0.107E-01  0.107E-01
  19.615  0.327E-01  0.109E-01  0.109E-01  0.109E-01
  19.635  0.332E-01  0.111E-01  0.111E-01  0.111E-01
  19.655  0.337E-01  0.112E-01  0.112E-01  0.112E-01
  19.675  0.341E-01  0.114E-01  0.114E-01  0.114E-01
  19.695  0.345E-01  0.115E-01  0.115E-01  0.115E-01
  19.715  0.349E-01  0.116E-01  0.116E-01  0.116E-01
  19.735  0.352E-01  0.117E-01  0.117E-01  0.117E-01
  19.755  0.355E-01  0.118E-01  0.118E-01  0.118E-01
  19.775  0.357E-01  0.119E-01  0.119E-01  0.119E-01
  19.795  0.358E-01  0.119E-01  0.119E-01  0.119E-01
  19.815  0.359E-01  0.120E-01  0.120E-01  0.120E-01
  19.835  0.359E-01  0.120E-01  0.120E-01  0.120E-01
  19.855  0.359E-01  0.120E-01  0.120E-01  0.120E-01
  19.875  0.358E-01  0.119E-01  0.119E-01  0.119E-01
  19.895  0.357E-01  0.119E-01  0.119E-01  0.119E-01
  19.915  0.355E-01  0.118E-01  0.118E-01  0.118E-01
  19.935  0.352E-01  0.117E-01  0.117E-01  0.117E-01
  19.955  0.350E-01  0.117E-01  0.117E-01  0.117E-01
  19.975  0.346E-01  0.115E-01  0.115E-01  0.115E-01
  19.995  0.343E-01  0.114E-01  0.114E-01  0.114E-01
  20.015  0.339E-01  0.113E-01  0.113E-01  0.113E-01
  20.035  0.335E-01  0.112E-01  0.112E-01  0.112E-01
  20.055  0.331E-01  0.110E-01  0.110E-01  0.110E-01
  20.075  0.326E-01  0.109E-01  0.109E-01  0.109E-01
  20.095  0.322E-01  0.107E-01  0.107E-01  0.107E-01
  20.115  0.317E-01  0.106E-01  0.106E-01  0.106E-01
  20.135  0.313E-01  0.104E-01  0.104E-01  0.104E-01
  20.155  0.309E-01  0.103E-01  0.103E-01  0.103E-01
  20.175  0.305E-01  0.102E-01  0.102E-01  0.102E-01
  20.195  0.301E-01  0.100E-01  0.100E-01  0.100E-01
  20.215  0.297E-01  0.990E-02  0.990E-02  0.990E-02
  20.235  0.293E-01  0.977E-02  0.977E-02  0.977E-02
  20.255  0.290E-01  0.966E-02  0.966E-02  0.966E-02
  20.275  0.287E-01  0.955E-02  0.955E-02  0.955E-02
  20.295  0.284E-01  0.945E-02  0.945E-02  0.945E-02
  20.315  0.281E-01  0.936E-02  0.936E-02  0.936E-02
  20.335  0.278E-01  0.927E-02  0.927E-02  0.927E-02
  20.355  0.276E-01  0.919E-02  0.919E-02  0.919E-02
  20.375  0.274E-01  0.912E-02  0.912E-02  0.912E-02
  20.395  0.272E-01  0.905E-02  0.905E-02  0.905E-02
  20.415  0.270E-01  0.899E-02  0.899E-02  0.899E-02
  20.435  0.268E-01  0.894E-02  0.894E-02  0.894E-02
  20.455  0.267E-01  0.889E-02  0.889E-02  0.889E-02
  20.475  0.265E-01  0.885E-02  0.885E-02  0.885E-02
  20.495  0.264E-01  0.881E-02  0.881E-02  0.881E-02
  20.515  0.264E-01  0.879E-02  0.879E-02  0.879E-02
  20.535  0.263E-01  0.876E-02  0.876E-02  0.876E-02
  20.555  0.262E-01  0.875E-02  0.875E-02  0.875E-02
  20.575  0.262E-01  0.873E-02  0.873E-02  0.873E-02
  20.595  0.262E-01  0.873E-02  0.873E-02  0.873E-02
  20.615  0.262E-01  0.873E-02  0.873E-02  0.873E-02
  20.635  0.262E-01  0.874E-02  0.874E-02  0.874E-02
  20.655  0.263E-01  0.875E-02  0.875E-02  0.875E-02
  20.675  0.263E-01  0.877E-02  0.877E-02  0.877E-02
  20.695  0.264E-01  0.880E-02  0.880E-02  0.880E-02
  20.715  0.265E-01  0.883E-02  0.883E-02  0.883E-02
  20.735  0.266E-01  0.887E-02  0.887E-02  0.887E-02
  20.755  0.267E-01  0.891E-02  0.891E-02  0.891E-02
  20.775  0.269E-01  0.896E-02  0.896E-02  0.896E-02
  20.795  0.270E-01  0.901E-02  0.901E-02  0.901E-02
  20.815  0.272E-01  0.906E-02  0.906E-02  0.906E-02
  20.835  0.273E-01  0.911E-02  0.911E-02  0.911E-02
  20.855  0.275E-01  0.916E-02  0.916E-02  0.916E-02
  20.875  0.276E-01  0.921E-02  0.921E-02  0.921E-02
  20.895  0.278E-01  0.926E-02  0.926E-02  0.926E-02
  20.915  0.279E-01  0.931E-02  0.931E-02  0.931E-02
  20.935  0.280E-01  0.935E-02  0.935E-02  0.935E-02
  20.955  0.281E-01  0.938E-02  0.938E-02  0.938E-02
  20.975  0.282E-01  0.940E-02  0.940E-02  0.940E-02
  20.995  0.282E-01  0.941E-02  0.941E-02  0.941E-02
  21.015  0.282E-01  0.941E-02  0.941E-02  0.941E-02
  21.035  0.282E-01  0.940E-02  0.940E-02  0.940E-02
  21.055  0.281E-01  0.938E-02  0.938E-02  0.938E-02
  21.075  0.280E-01  0.935E-02  0.935E-02  0.935E-02
  21.095  0.279E-01  0.930E-02  0.930E-02  0.930E-02
  21.115  0.277E-01  0.923E-02  0.923E-02  0.923E-02
  21.135  0.275E-01  0.915E-02  0.915E-02  0.915E-02
  21.155  0.272E-01  0.906E-02  0.906E-02  0.906E-02
  21.175  0.269E-01  0.896E-02  0.896E-02  0.896E-02
  21.195  0.265E-01  0.884E-02  0.884E-02  0.884E-02
  21.215  0.262E-01  0.872E-02  0.872E-02  0.872E-02
  21.235  0.258E-01  0.859E-02  0.859E-02  0.859E-02
  21.255  0.253E-01  0.844E-02  0.844E-02  0.844E-02
  21.275  0.249E-01  0.830E-02  0.830E-02  0.830E-02
  21.295  0.244E-01  0.815E-02  0.815E-02  0.815E-02
  21.315  0.240E-01  0.800E-02  0.800E-02  0.800E-02
  21.335  0.235E-01  0.784E-02  0.784E-02  0.784E-02
  21.355  0.231E-01  0.769E-02  0.769E-02  0.769E-02
  21.375  0.226E-01  0.755E-02  0.755E-02  0.755E-02
  21.395  0.222E-01  0.741E-02  0.741E-02  0.741E-02
  21.415  0.218E-01  0.728E-02  0.728E-02  0.728E-02
  21.435  0.215E-01  0.716E-02  0.716E-02  0.716E-02
  21.455  0.211E-01  0.704E-02  0.704E-02  0.704E-02
  21.475  0.208E-01  0.694E-02  0.694E-02  0.694E-02
  21.495  0.206E-01  0.685E-02  0.685E-02  0.685E-02
  21.515  0.203E-01  0.678E-02  0.678E-02  0.678E-02
  21.535  0.201E-01  0.672E-02  0.672E-02  0.672E-02
  21.555  0.200E-01  0.667E-02  0.667E-02  0.667E-02
  21.575  0.199E-01  0.663E-02  0.663E-02  0.663E-02
  21.595  0.198E-01  0.660E-02  0.660E-02  0.660E-02
  21.615  0.198E-01  0.659E-02  0.659E-02  0.659E-02
  21.635  0.198E-01  0.659E-02  0.659E-02  0.659E-02
  21.655  0.198E-01  0.659E-02  0.659E-02  0.659E-02
  21.675  0.198E-01  0.661E-02  0.661E-02  0.661E-02
  21.695  0.199E-01  0.663E-02  0.663E-02  0.663E-02
  21.715  0.200E-01  0.665E-02  0.665E-02  0.665E-02
  21.735  0.200E-01  0.668E-02  0.668E-02  0.668E-02
  21.755  0.201E-01  0.671E-02  0.671E-02  0.671E-02
  21.775  0.202E-01  0.674E-02  0.674E-02  0.674E-02
  21.795  0.203E-01  0.677E-02  0.677E-02  0.677E-02
  21.815  0.204E-01  0.680E-02  0.680E-02  0.680E-02
  21.835  0.205E-01  0.683E-02  0.683E-02  0.683E-02
  21.855  0.206E-01  0.685E-02  0.685E-02  0.685E-02
  21.875  0.206E-01  0.687E-02  0.687E-02  0.687E-02
  21.895  0.206E-01  0.688E-02  0.688E-02  0.688E-02
  21.915  0.206E-01  0.688E-02  0.688E-02  0.688E-02
  21.935  0.206E-01  0.687E-02  0.687E-02  0.687E-02
  21.955  0.206E-01  0.686E-02  0.686E-02  0.686E-02
  21.975  0.205E-01  0.684E-02  0.684E-02  0.684E-02
  21.995  0.204E-01  0.681E-02  0.681E-02  0.681E-02
  22.015  0.203E-01  0.677E-02  0.677E-02  0.677E-02
  22.035  0.202E-01  0.673E-02  0.673E-02  0.673E-02
  22.055  0.200E-01  0.668E-02  0.668E-02  0.668E-02
  22.075  0.198E-01  0.662E-02  0.662E-02  0.662E-02
  22.095  0.196E-01  0.655E-02  0.655E-02  0.655E-02
  22.115  0.194E-01  0.647E-02  0.647E-02  0.647E-02
  22.135  0.192E-01  0.639E-02  0.639E-02  0.639E-02
  22.155  0.189E-01  0.631E-02  0.631E-02  0.631E-02
  22.175  0.187E-01  0.622E-02  0.622E-02  0.622E-02
  22.195  0.184E-01  0.612E-02  0.612E-02  0.612E-02
  22.215  0.181E-01  0.603E-02  0.603E-02  0.603E-02
  22.235  0.178E-01  0.593E-02  0.593E-02  0.593E-02
  22.255  0.175E-01  0.582E-02  0.582E-02  0.582E-02
  22.275  0.172E-01  0.572E-02  0.572E-02  0.572E-02
  22.295  0.168E-01  0.561E-02  0.561E-02  0.561E-02
  22.315  0.165E-01  0.551E-02  0.551E-02  0.551E-02
  22.335  0.162E-01  0.541E-02  0.541E-02  0.541E-02
  22.355  0.159E-01  0.530E-02  0.530E-02  0.530E-02
  22.375  0.156E-01  0.520E-02  0.520E-02  0.520E-02
  22.395  0.153E-01  0.511E-02  0.511E-02  0.511E-02
  22.415  0.150E-01  0.501E-02  0.501E-02  0.501E-02
  22.435  0.148E-01  0.492E-02  0.492E-02  0.492E-02
  22.455  0.145E-01  0.484E-02  0.484E-02  0.484E-02
  22.475  0.143E-01  0.476E-02  0.476E-02  0.476E-02
  22.495  0.141E-01  0.469E-02  0.469E-02  0.469E-02
  22.515  0.139E-01  0.462E-02  0.462E-02  0.462E-02
  22.535  0.137E-01  0.456E-02  0.456E-02  0.456E-02
  22.555  0.135E-01  0.450E-02  0.450E-02  0.450E-02
  22.575  0.134E-01  0.446E-02  0.446E-02  0.446E-02
  22.595  0.132E-01  0.441E-02  0.441E-02  0.441E-02
  22.615  0.131E-01  0.438E-02  0.438E-02  0.438E-02
  22.635  0.130E-01  0.435E-02  0.435E-02  0.435E-02
  22.655  0.130E-01  0.433E-02  0.433E-02  0.433E-02
  22.675  0.129E-01  0.431E-02  0.431E-02  0.431E-02
  22.695  0.129E-01  0.429E-02  0.429E-02  0.429E-02
  22.715  0.129E-01  0.428E-02  0.428E-02  0.428E-02
  22.735  0.128E-01  0.428E-02  0.428E-02  0.428E-02
  22.755  0.128E-01  0.427E-02  0.427E-02  0.427E-02
  22.775  0.128E-01  0.427E-02  0.427E-02  0.427E-02
  22.795  0.128E-01  0.426E-02  0.426E-02  0.426E-02
  22.815  0.128E-01  0.426E-02  0.426E-02  0.426E-02
  22.835  0.128E-01  0.425E-02  0.425E-02  0.425E-02
  22.855  0.127E-01  0.424E-02  0.424E-02  0.424E-02
  22.875  0.127E-01  0.422E-02  0.422E-02  0.422E-02
  22.895  0.126E-01  0.420E-02  0.420E-02  0.420E-02
  22.915  0.125E-01  0.418E-02  0.418E-02  0.418E-02
  22.935  0.124E-01  0.415E-02  0.415E-02  0.415E-02
  22.955  0.123E-01  0.411E-02  0.411E-02  0.411E-02
  22.975  0.122E-01  0.406E-02  0.406E-02  0.406E-02
  22.995  0.120E-01  0.401E-02  0.401E-02  0.401E-02
  23.015  0.118E-01  0.394E-02  0.394E-02  0.394E-02
  23.035  0.116E-01  0.387E-02  0.387E-02  0.387E-02
  23.055  0.114E-01  0.379E-02  0.379E-02  0.379E-02
  23.075  0.111E-01  0.371E-02  0.371E-02  0.371E-02
  23.095  0.108E-01  0.361E-02  0.361E-02  0.361E-02
  23.115  0.105E-01  0.351E-02  0.351E-02  0.351E-02
  23.135  0.102E-01  0.341E-02  0.341E-02  0.341E-02
  23.155  0.989E-02  0.330E-02  0.330E-02  0.330E-02
  23.175  0.954E-02  0.318E-02  0.318E-02  0.318E-02
  23.195  0.919E-02  0.306E-02  0.306E-02  0.306E-02
  23.215  0.883E-02  0.294E-02  0.294E-02  0.294E-02
  23.235  0.847E-02  0.282E-02  0.282E-02  0.282E-02
  23.255  0.811E-02  0.270E-02  0.270E-02  0.270E-02
  23.275  0.775E-02  0.258E-02  0.258E-02  0.258E-02
  23.295  0.740E-02  0.247E-02  0.247E-02  0.247E-02
  23.315  0.706E-02  0.235E-02  0.235E-02  0.235E-02
  23.335  0.674E-02  0.225E-02  0.225E-02  0.225E-02
  23.355  0.642E-02  0.214E-02  0.214E-02  0.214E-02
  23.375  0.613E-02  0.204E-02  0.204E-02  0.204E-02
  23.395  0.585E-02  0.195E-02  0.195E-02  0.195E-02
  23.415  0.559E-02  0.186E-02  0.186E-02  0.186E-02
  23.435  0.535E-02  0.178E-02  0.178E-02  0.178E-02
  23.455  0.514E-02  0.171E-02  0.171E-02  0.171E-02
  23.475  0.494E-02  0.165E-02  0.165E-02  0.165E-02
  23.495  0.477E-02  0.159E-02  0.159E-02  0.159E-02
  23.515  0.462E-02  0.154E-02  0.154E-02  0.154E-02
  23.535  0.449E-02  0.150E-02  0.150E-02  0.150E-02
  23.555  0.437E-02  0.146E-02  0.146E-02  0.146E-02
  23.575  0.428E-02  0.143E-02  0.143E-02  0.143E-02
  23.595  0.420E-02  0.140E-02  0.140E-02  0.140E-02
  23.615  0.414E-02  0.138E-02  0.138E-02  0.138E-02
  23.635  0.409E-02  0.136E-02  0.136E-02  0.136E-02
  23.655  0.405E-02  0.135E-02  0.135E-02  0.135E-02
  23.675  0.401E-02  0.134E-02  0.134E-02  0.134E-02
  23.695  0.399E-02  0.133E-02  0.133E-02  0.133E-02
  23.715  0.397E-02  0.132E-02  0.132E-02  0.132E-02
  23.735  0.395E-02  0.132E-02  0.132E-02  0.132E-02
  23.755  0.393E-02  0.131E-02  0.131E-02  0.131E-02
  23.775  0.392E-02  0.131E-02  0.131E-02  0.131E-02
  23.795  0.390E-02  0.130E-02  0.130E-02  0.130E-02
  23.815  0.387E-02  0.129E-02  0.129E-02  0.129E-02
  23.835  0.384E-02  0.128E-02  0.128E-02  0.128E-02
  23.855  0.380E-02  0.127E-02  0.127E-02  0.127E-02
  23.875  0.376E-02  0.125E-02  0.125E-02  0.125E-02
  23.895  0.370E-02  0.123E-02  0.123E-02  0.123E-02
  23.915  0.364E-02  0.121E-02  0.121E-02  0.121E-02
  23.935  0.357E-02  0.119E-02  0.119E-02  0.119E-02
  23.955  0.349E-02  0.116E-02  0.116E-02  0.116E-02
  23.975  0.340E-02  0.113E-02  0.113E-02  0.113E-02
  23.995  0.330E-02  0.110E-02  0.110E-02  0.110E-02
  24.015  0.319E-02  0.106E-02  0.106E-02  0.106E-02
  24.035  0.308E-02  0.103E-02  0.103E-02  0.103E-02
  24.055  0.295E-02  0.985E-03  0.985E-03  0.985E-03
  24.075  0.283E-02  0.943E-03  0.943E-03  0.943E-03
  24.095  0.270E-02  0.898E-03  0.898E-03  0.898E-03
  24.115  0.256E-02  0.853E-03  0.853E-03  0.853E-03
  24.135  0.242E-02  0.807E-03  0.807E-03  0.807E-03
  24.155  0.228E-02  0.760E-03  0.760E-03  0.760E-03
  24.175  0.214E-02  0.713E-03  0.713E-03  0.713E-03
  24.195  0.200E-02  0.666E-03  0.666E-03  0.666E-03
  24.215  0.186E-02  0.620E-03  0.620E-03  0.620E-03
  24.235  0.172E-02  0.574E-03  0.574E-03  0.574E-03
  24.255  0.159E-02  0.530E-03  0.530E-03  0.530E-03
  24.275  0.146E-02  0.487E-03  0.487E-03  0.487E-03
  24.295  0.134E-02  0.445E-03  0.445E-03  0.445E-03
  24.315  0.122E-02  0.405E-03  0.405E-03  0.405E-03
  24.335  0.110E-02  0.368E-03  0.368E-03  0.368E-03
  24.355  0.996E-03  0.332E-03  0.332E-03  0.332E-03
  24.375  0.895E-03  0.298E-03  0.298E-03  0.298E-03
  24.395  0.801E-03  0.267E-03  0.267E-03  0.267E-03
  24.415  0.713E-03  0.238E-03  0.238E-03  0.238E-03
  24.435  0.633E-03  0.211E-03  0.211E-03  0.211E-03
  24.455  0.559E-03  0.186E-03  0.186E-03  0.186E-03
  24.475  0.491E-03  0.164E-03  0.164E-03  0.164E-03
  24.495  0.430E-03  0.143E-03  0.143E-03  0.143E-03
  24.515  0.374E-03  0.125E-03  0.125E-03  0.125E-03
  24.535  0.325E-03  0.108E-03  0.108E-03  0.108E-03
  24.555  0.280E-03  0.934E-04  0.934E-04  0.934E-04
  24.575  0.241E-03  0.803E-04  0.803E-04  0.803E-04
  24.595  0.206E-03  0.686E-04  0.686E-04  0.686E-04
  24.615  0.175E-03  0.584E-04  0.584E-04  0.584E-04
  24.635  0.149E-03  0.495E-04  0.495E-04  0.495E-04
  24.655  0.125E-03  0.418E-04  0.418E-04  0.418E-04
  24.675  0.105E-03  0.351E-04  0.351E-04  0.351E-04
  24.695  0.880E-04  0.293E-04  0.293E-04  0.293E-04
  24.715  0.732E-04  0.244E-04  0.244E-04  0.244E-04
  24.735  0.606E-04  0.202E-04  0.202E-04  0.202E-04
  24.755  0.500E-04  0.167E-04  0.167E-04  0.167E-04
  24.775  0.410E-04  0.137E-04  0.137E-04  0.137E-04
  24.795  0.335E-04  0.112E-04  0.112E-04  0.112E-04
  24.815  0.272E-04  0.907E-05  0.907E-05  0.907E-05
  24.835  0.220E-04  0.734E-05  0.734E-05  0.734E-05
  24.855  0.177E-04  0.591E-05  0.591E-05  0.591E-05
  24.875  0.142E-04  0.473E-05  0.473E-05  0.473E-05
  24.895  0.113E-04  0.378E-05  0.378E-05  0.378E-05
  24.915  0.899E-05  0.300E-05  0.300E-05  0.300E-05
  24.935  0.711E-05  0.237E-05  0.237E-05  0.237E-05
  24.955  0.559E-05  0.186E-05  0.186E-05  0.186E-05
  24.975  0.437E-05  0.146E-05  0.146E-05  0.146E-05
  24.995  0.341E-05  0.114E-05  0.114E-05  0.114E-05
  25.015  0.264E-05  0.881E-06  0.881E-06  0.881E-06
  25.035  0.204E-05  0.680E-06  0.680E-06  0.680E-06
  25.055  0.157E-05  0.522E-06  0.522E-06  0.522E-06
  25.075  0.120E-05  0.399E-06  0.399E-06  0.399E-06
  25.095  0.911E-06  0.304E-06  0.304E-06  0.304E-06
  25.115  0.689E-06  0.230E-06  0.230E-06  0.230E-06
  25.135  0.520E-06  0.173E-06  0.173E-06  0.173E-06
  25.155  0.390E-06  0.130E-06  0.130E-06  0.130E-06
  25.175  0.291E-06  0.970E-07  0.970E-07  0.970E-07
