# E (eV)  dos(E)    pdos(E)
  -5.081  0.827E-06  0.820E-06
  -5.061  0.996E-06  0.989E-06
  -5.041  0.120E-05  0.119E-05
  -5.021  0.144E-05  0.143E-05
  -5.001  0.173E-05  0.171E-05
  -4.981  0.207E-05  0.205E-05
  -4.961  0.247E-05  0.245E-05
  -4.941  0.295E-05  0.293E-05
  -4.921  0.352E-05  0.349E-05
  -4.901  0.419E-05  0.416E-05
  -4.881  0.497E-05  0.494E-05
  -4.861  0.590E-05  0.585E-05
  -4.841  0.699E-05  0.693E-05
  -4.821  0.826E-05  0.820E-05
  -4.801  0.975E-05  0.967E-05
  -4.781  0.115E-04  0.114E-04
  -4.761  0.135E-04  0.134E-04
  -4.741  0.159E-04  0.158E-04
  -4.721  0.186E-04  0.185E-04
  -4.701  0.218E-04  0.216E-04
  -4.681  0.255E-04  0.253E-04
  -4.661  0.298E-04  0.295E-04
  -4.641  0.347E-04  0.344E-04
  -4.621  0.404E-04  0.401E-04
  -4.601  0.469E-04  0.465E-04
  -4.581  0.544E-04  0.540E-04
  -4.561  0.630E-04  0.625E-04
  -4.541  0.728E-04  0.723E-04
  -4.521  0.841E-04  0.834E-04
  -4.501  0.969E-04  0.962E-04
  -4.481  0.112E-03  0.111E-03
  -4.461  0.128E-03  0.127E-03
  -4.441  0.147E-03  0.146E-03
  -4.421  0.168E-03  0.167E-03
  -4.401  0.193E-03  0.191E-03
  -4.381  0.220E-03  0.218E-03
  -4.361  0.251E-03  0.249E-03
  -4.341  0.286E-03  0.283E-03
  -4.321  0.325E-03  0.322E-03
  -4.301  0.369E-03  0.366E-03
  -4.281  0.418E-03  0.414E-03
  -4.261  0.473E-03  0.469E-03
  -4.241  0.534E-03  0.530E-03
  -4.221  0.602E-03  0.598E-03
  -4.201  0.678E-03  0.673E-03
  -4.181  0.763E-03  0.757E-03
  -4.161  0.857E-03  0.851E-03
  -4.141  0.961E-03  0.954E-03
  -4.121  0.108E-02  0.107E-02
  -4.101  0.120E-02  0.119E-02
  -4.081  0.134E-02  0.133E-02
  -4.061  0.150E-02  0.149E-02
  -4.041  0.167E-02  0.165E-02
  -4.021  0.185E-02  0.184E-02
  -4.001  0.206E-02  0.204E-02
  -3.981  0.228E-02  0.226E-02
  -3.961  0.252E-02  0.250E-02
  -3.941  0.278E-02  0.276E-02
  -3.921  0.307E-02  0.305E-02
  -3.901  0.338E-02  0.336E-02
  -3.881  0.372E-02  0.370E-02
  -3.861  0.409E-02  0.406E-02
  -3.841  0.449E-02  0.445E-02
  -3.821  0.492E-02  0.488E-02
  -3.801  0.538E-02  0.534E-02
  -3.781  0.588E-02  0.583E-02
  -3.761  0.641E-02  0.636E-02
  -3.741  0.698E-02  0.693E-02
  -3.721  0.760E-02  0.754E-02
  -3.701  0.825E-02  0.819E-02
  -3.681  0.895E-02  0.889E-02
  -3.661  0.970E-02  0.963E-02
  -3.641  0.105E-01  0.104E-01
  -3.621  0.113E-01  0.113E-01
  -3.601  0.122E-01  0.121E-01
  -3.581  0.132E-01  0.131E-01
  -3.561  0.142E-01  0.141E-01
  -3.541  0.153E-01  0.151E-01
  -3.521  0.164E-01  0.163E-01
  -3.501  0.176E-01  0.174E-01
  -3.481  0.188E-01  0.187E-01
  -3.461  0.201E-01  0.199E-01
  -3.441  0.215E-01  0.213E-01
  -3.421  0.229E-01  0.227E-01
  -3.401  0.244E-01  0.242E-01
  -3.381  0.259E-01  0.257E-01
  -3.361  0.276E-01  0.274E-01
  -3.341  0.293E-01  0.290E-01
  -3.321  0.310E-01  0.308E-01
  -3.301  0.328E-01  0.326E-01
  -3.281  0.347E-01  0.345E-01
  -3.261  0.367E-01  0.364E-01
  -3.241  0.387E-01  0.384E-01
  -3.221  0.408E-01  0.405E-01
  -3.201  0.429E-01  0.426E-01
  -3.181  0.452E-01  0.448E-01
  -3.161  0.474E-01  0.471E-01
  -3.141  0.498E-01  0.494E-01
  -3.121  0.522E-01  0.518E-01
  -3.101  0.546E-01  0.542E-01
  -3.081  0.571E-01  0.567E-01
  -3.061  0.597E-01  0.592E-01
  -3.041  0.623E-01  0.618E-01
  -3.021  0.649E-01  0.645E-01
  -3.001  0.676E-01  0.672E-01
  -2.981  0.704E-01  0.699E-01
  -2.961  0.732E-01  0.727E-01
  -2.941  0.760E-01  0.755E-01
  -2.921  0.789E-01  0.783E-01
  -2.901  0.818E-01  0.812E-01
  -2.881  0.847E-01  0.841E-01
  -2.861  0.876E-01  0.870E-01
  -2.841  0.906E-01  0.900E-01
  -2.821  0.936E-01  0.929E-01
  -2.801  0.966E-01  0.959E-01
  -2.781  0.997E-01  0.989E-01
  -2.761  0.103E+00  0.102E+00
  -2.741  0.106E+00  0.105E+00
  -2.721  0.109E+00  0.108E+00
  -2.701  0.112E+00  0.111E+00
  -2.681  0.115E+00  0.114E+00
  -2.661  0.118E+00  0.117E+00
  -2.641  0.121E+00  0.120E+00
  -2.621  0.124E+00  0.123E+00
  -2.601  0.127E+00  0.126E+00
  -2.581  0.130E+00  0.129E+00
  -2.561  0.133E+00  0.132E+00
  -2.541  0.136E+00  0.135E+00
  -2.521  0.139E+00  0.138E+00
  -2.501  0.142E+00  0.141E+00
  -2.481  0.145E+00  0.144E+00
  -2.461  0.148E+00  0.147E+00
  -2.441  0.151E+00  0.150E+00
  -2.421  0.154E+00  0.153E+00
  -2.401  0.157E+00  0.155E+00
  -2.381  0.159E+00  0.158E+00
  -2.361  0.162E+00  0.161E+00
  -2.341  0.165E+00  0.164E+00
  -2.321  0.168E+00  0.166E+00
  -2.301  0.170E+00  0.169E+00
  -2.281  0.173E+00  0.172E+00
  -2.261  0.176E+00  0.174E+00
  -2.241  0.178E+00  0.177E+00
  -2.221  0.181E+00  0.179E+00
  -2.201  0.184E+00  0.182E+00
  -2.181  0.186E+00  0.185E+00
  -2.161  0.189E+00  0.187E+00
  -2.141  0.191E+00  0.189E+00
  -2.121  0.193E+00  0.192E+00
  -2.101  0.196E+00  0.194E+00
  -2.081  0.198E+00  0.197E+00
  -2.061  0.201E+00  0.199E+00
  -2.041  0.203E+00  0.201E+00
  -2.021  0.205E+00  0.203E+00
  -2.001  0.208E+00  0.206E+00
  -1.981  0.210E+00  0.208E+00
  -1.961  0.212E+00  0.210E+00
  -1.941  0.214E+00  0.212E+00
  -1.921  0.216E+00  0.214E+00
  -1.901  0.219E+00  0.217E+00
  -1.881  0.221E+00  0.219E+00
  -1.861  0.223E+00  0.221E+00
  -1.841  0.225E+00  0.223E+00
  -1.821  0.227E+00  0.225E+00
  -1.801  0.229E+00  0.227E+00
  -1.781  0.231E+00  0.229E+00
  -1.761  0.233E+00  0.231E+00
  -1.741  0.235E+00  0.233E+00
  -1.721  0.237E+00  0.235E+00
  -1.701  0.239E+00  0.237E+00
  -1.681  0.241E+00  0.238E+00
  -1.661  0.243E+00  0.240E+00
  -1.641  0.245E+00  0.242E+00
  -1.621  0.247E+00  0.244E+00
  -1.601  0.249E+00  0.246E+00
  -1.581  0.251E+00  0.248E+00
  -1.561  0.252E+00  0.250E+00
  -1.541  0.254E+00  0.251E+00
  -1.521  0.256E+00  0.253E+00
  -1.501  0.258E+00  0.255E+00
  -1.481  0.260E+00  0.257E+00
  -1.461  0.262E+00  0.258E+00
  -1.441  0.263E+00  0.260E+00
  -1.421  0.265E+00  0.262E+00
  -1.401  0.267E+00  0.264E+00
  -1.381  0.269E+00  0.265E+00
  -1.361  0.271E+00  0.267E+00
  -1.341  0.272E+00  0.269E+00
  -1.321  0.274E+00  0.270E+00
  -1.301  0.276E+00  0.272E+00
  -1.281  0.278E+00  0.274E+00
  -1.261  0.279E+00  0.275E+00
  -1.241  0.281E+00  0.277E+00
  -1.221  0.283E+00  0.279E+00
  -1.201  0.285E+00  0.280E+00
  -1.181  0.286E+00  0.282E+00
  -1.161  0.288E+00  0.284E+00
  -1.141  0.290E+00  0.285E+00
  -1.121  0.291E+00  0.287E+00
  -1.101  0.293E+00  0.289E+00
  -1.081  0.295E+00  0.290E+00
  -1.061  0.296E+00  0.292E+00
  -1.041  0.298E+00  0.293E+00
  -1.021  0.300E+00  0.295E+00
  -1.001  0.302E+00  0.297E+00
  -0.981  0.303E+00  0.298E+00
  -0.961  0.305E+00  0.300E+00
  -0.941  0.307E+00  0.301E+00
  -0.921  0.308E+00  0.303E+00
  -0.901  0.310E+00  0.305E+00
  -0.881  0.312E+00  0.306E+00
  -0.861  0.313E+00  0.308E+00
  -0.841  0.315E+00  0.309E+00
  -0.821  0.317E+00  0.311E+00
  -0.801  0.319E+00  0.313E+00
  -0.781  0.320E+00  0.314E+00
  -0.761  0.322E+00  0.316E+00
  -0.741  0.324E+00  0.317E+00
  -0.721  0.325E+00  0.319E+00
  -0.701  0.327E+00  0.321E+00
  -0.681  0.329E+00  0.322E+00
  -0.661  0.331E+00  0.324E+00
  -0.641  0.332E+00  0.325E+00
  -0.621  0.334E+00  0.327E+00
  -0.601  0.336E+00  0.329E+00
  -0.581  0.338E+00  0.330E+00
  -0.561  0.339E+00  0.332E+00
  -0.541  0.341E+00  0.333E+00
  -0.521  0.343E+00  0.335E+00
  -0.501  0.345E+00  0.337E+00
  -0.481  0.347E+00  0.338E+00
  -0.461  0.349E+00  0.340E+00
  -0.441  0.350E+00  0.342E+00
  -0.421  0.352E+00  0.343E+00
  -0.401  0.354E+00  0.345E+00
  -0.381  0.356E+00  0.347E+00
  -0.361  0.358E+00  0.348E+00
  -0.341  0.360E+00  0.350E+00
  -0.321  0.362E+00  0.352E+00
  -0.301  0.364E+00  0.353E+00
  -0.281  0.366E+00  0.355E+00
  -0.261  0.368E+00  0.357E+00
  -0.241  0.370E+00  0.359E+00
  -0.221  0.372E+00  0.360E+00
  -0.201  0.374E+00  0.362E+00
  -0.181  0.376E+00  0.364E+00
  -0.161  0.379E+00  0.366E+00
  -0.141  0.381E+00  0.368E+00
  -0.121  0.383E+00  0.369E+00
  -0.101  0.385E+00  0.371E+00
  -0.081  0.387E+00  0.373E+00
  -0.061  0.390E+00  0.375E+00
  -0.041  0.392E+00  0.377E+00
  -0.021  0.394E+00  0.379E+00
  -0.001  0.397E+00  0.381E+00
   0.019  0.399E+00  0.382E+00
   0.039  0.401E+00  0.384E+00
   0.059  0.404E+00  0.386E+00
   0.079  0.406E+00  0.388E+00
   0.099  0.409E+00  0.390E+00
   0.119  0.411E+00  0.392E+00
   0.139  0.414E+00  0.394E+00
   0.159  0.416E+00  0.396E+00
   0.179  0.419E+00  0.398E+00
   0.199  0.421E+00  0.400E+00
   0.219  0.424E+00  0.402E+00
   0.239  0.426E+00  0.404E+00
   0.259  0.429E+00  0.406E+00
   0.279  0.431E+00  0.408E+00
   0.299  0.434E+00  0.410E+00
   0.319  0.436E+00  0.411E+00
   0.339  0.439E+00  0.413E+00
   0.359  0.441E+00  0.415E+00
   0.379  0.444E+00  0.417E+00
   0.399  0.446E+00  0.419E+00
   0.419  0.449E+00  0.421E+00
   0.439  0.451E+00  0.423E+00
   0.459  0.453E+00  0.424E+00
   0.479  0.456E+00  0.426E+00
   0.499  0.458E+00  0.428E+00
   0.519  0.460E+00  0.429E+00
   0.539  0.462E+00  0.431E+00
   0.559  0.464E+00  0.432E+00
   0.579  0.466E+00  0.434E+00
   0.599  0.468E+00  0.435E+00
   0.619  0.470E+00  0.436E+00
   0.639  0.472E+00  0.438E+00
   0.659  0.473E+00  0.439E+00
   0.679  0.475E+00  0.440E+00
   0.699  0.477E+00  0.441E+00
   0.719  0.478E+00  0.442E+00
   0.739  0.479E+00  0.443E+00
   0.759  0.480E+00  0.443E+00
   0.779  0.481E+00  0.444E+00
   0.799  0.482E+00  0.445E+00
   0.819  0.483E+00  0.445E+00
   0.839  0.484E+00  0.445E+00
   0.859  0.484E+00  0.446E+00
   0.879  0.485E+00  0.446E+00
   0.899  0.485E+00  0.446E+00
   0.919  0.485E+00  0.446E+00
   0.939  0.485E+00  0.446E+00
   0.959  0.485E+00  0.445E+00
   0.979  0.485E+00  0.445E+00
   0.999  0.485E+00  0.444E+00
   1.019  0.484E+00  0.443E+00
   1.039  0.484E+00  0.443E+00
   1.059  0.483E+00  0.442E+00
   1.079  0.482E+00  0.441E+00
   1.099  0.481E+00  0.439E+00
   1.119  0.480E+00  0.438E+00
   1.139  0.478E+00  0.437E+00
   1.159  0.477E+00  0.435E+00
   1.179  0.475E+00  0.434E+00
   1.199  0.473E+00  0.432E+00
   1.219  0.471E+00  0.430E+00
   1.239  0.470E+00  0.428E+00
   1.259  0.467E+00  0.426E+00
   1.279  0.465E+00  0.423E+00
   1.299  0.463E+00  0.421E+00
   1.319  0.460E+00  0.419E+00
   1.339  0.458E+00  0.416E+00
   1.359  0.455E+00  0.413E+00
   1.379  0.452E+00  0.411E+00
   1.399  0.450E+00  0.408E+00
   1.419  0.447E+00  0.405E+00
   1.439  0.444E+00  0.402E+00
   1.459  0.440E+00  0.399E+00
   1.479  0.437E+00  0.395E+00
   1.499  0.434E+00  0.392E+00
   1.519  0.431E+00  0.389E+00
   1.539  0.427E+00  0.385E+00
   1.559  0.424E+00  0.382E+00
   1.579  0.420E+00  0.378E+00
   1.599  0.417E+00  0.375E+00
   1.619  0.413E+00  0.371E+00
   1.639  0.409E+00  0.367E+00
   1.659  0.405E+00  0.363E+00
   1.679  0.402E+00  0.359E+00
   1.699  0.398E+00  0.355E+00
   1.719  0.394E+00  0.351E+00
   1.739  0.390E+00  0.347E+00
   1.759  0.386E+00  0.343E+00
   1.779  0.382E+00  0.339E+00
   1.799  0.378E+00  0.335E+00
   1.819  0.374E+00  0.331E+00
   1.839  0.370E+00  0.327E+00
   1.859  0.366E+00  0.323E+00
   1.879  0.362E+00  0.318E+00
   1.899  0.358E+00  0.314E+00
   1.919  0.354E+00  0.310E+00
   1.939  0.350E+00  0.306E+00
   1.959  0.345E+00  0.301E+00
   1.979  0.341E+00  0.297E+00
   1.999  0.337E+00  0.293E+00
   2.019  0.333E+00  0.288E+00
   2.039  0.329E+00  0.284E+00
   2.059  0.325E+00  0.279E+00
   2.079  0.321E+00  0.275E+00
   2.099  0.317E+00  0.271E+00
   2.119  0.312E+00  0.266E+00
   2.139  0.308E+00  0.262E+00
   2.159  0.304E+00  0.258E+00
   2.179  0.300E+00  0.253E+00
   2.199  0.296E+00  0.249E+00
   2.219  0.292E+00  0.245E+00
   2.239  0.288E+00  0.241E+00
   2.259  0.284E+00  0.236E+00
   2.279  0.280E+00  0.232E+00
   2.299  0.276E+00  0.228E+00
   2.319  0.272E+00  0.224E+00
   2.339  0.269E+00  0.220E+00
   2.359  0.265E+00  0.216E+00
   2.379  0.261E+00  0.212E+00
   2.399  0.257E+00  0.208E+00
   2.419  0.254E+00  0.204E+00
   2.439  0.250E+00  0.200E+00
   2.459  0.247E+00  0.196E+00
   2.479  0.243E+00  0.192E+00
   2.499  0.240E+00  0.189E+00
   2.519  0.237E+00  0.185E+00
   2.539  0.233E+00  0.182E+00
   2.559  0.230E+00  0.178E+00
   2.579  0.227E+00  0.175E+00
   2.599  0.224E+00  0.171E+00
   2.619  0.221E+00  0.168E+00
   2.639  0.218E+00  0.165E+00
   2.659  0.216E+00  0.162E+00
   2.679  0.213E+00  0.159E+00
   2.699  0.211E+00  0.156E+00
   2.719  0.209E+00  0.154E+00
   2.739  0.207E+00  0.151E+00
   2.759  0.205E+00  0.149E+00
   2.779  0.203E+00  0.147E+00
   2.799  0.201E+00  0.144E+00
   2.819  0.199E+00  0.142E+00
   2.839  0.198E+00  0.141E+00
   2.859  0.197E+00  0.139E+00
   2.879  0.196E+00  0.137E+00
   2.899  0.195E+00  0.136E+00
   2.919  0.195E+00  0.135E+00
   2.939  0.194E+00  0.134E+00
   2.959  0.194E+00  0.133E+00
   2.979  0.194E+00  0.133E+00
   2.999  0.194E+00  0.132E+00
   3.019  0.195E+00  0.132E+00
   3.039  0.196E+00  0.132E+00
   3.059  0.197E+00  0.132E+00
   3.079  0.198E+00  0.133E+00
   3.099  0.200E+00  0.133E+00
   3.119  0.201E+00  0.134E+00
   3.139  0.204E+00  0.136E+00
   3.159  0.206E+00  0.137E+00
   3.179  0.208E+00  0.139E+00
   3.199  0.211E+00  0.140E+00
   3.219  0.215E+00  0.143E+00
   3.239  0.218E+00  0.145E+00
   3.259  0.222E+00  0.148E+00
   3.279  0.226E+00  0.150E+00
   3.299  0.230E+00  0.153E+00
   3.319  0.234E+00  0.157E+00
   3.339  0.239E+00  0.160E+00
   3.359  0.244E+00  0.164E+00
   3.379  0.250E+00  0.168E+00
   3.399  0.255E+00  0.172E+00
   3.419  0.261E+00  0.177E+00
   3.439  0.267E+00  0.181E+00
   3.459  0.273E+00  0.186E+00
   3.479  0.280E+00  0.191E+00
   3.499  0.286E+00  0.196E+00
   3.519  0.293E+00  0.202E+00
   3.539  0.300E+00  0.207E+00
   3.559  0.307E+00  0.213E+00
   3.579  0.315E+00  0.219E+00
   3.599  0.322E+00  0.225E+00
   3.619  0.330E+00  0.231E+00
   3.639  0.337E+00  0.237E+00
   3.659  0.345E+00  0.243E+00
   3.679  0.353E+00  0.249E+00
   3.699  0.361E+00  0.256E+00
   3.719  0.368E+00  0.262E+00
   3.739  0.376E+00  0.268E+00
   3.759  0.384E+00  0.275E+00
   3.779  0.392E+00  0.281E+00
   3.799  0.400E+00  0.287E+00
   3.819  0.407E+00  0.293E+00
   3.839  0.415E+00  0.300E+00
   3.859  0.422E+00  0.306E+00
   3.879  0.430E+00  0.312E+00
   3.899  0.437E+00  0.317E+00
   3.919  0.444E+00  0.323E+00
   3.939  0.451E+00  0.329E+00
   3.959  0.457E+00  0.334E+00
   3.979  0.464E+00  0.339E+00
   3.999  0.470E+00  0.344E+00
   4.019  0.476E+00  0.349E+00
   4.039  0.482E+00  0.354E+00
   4.059  0.487E+00  0.358E+00
   4.079  0.492E+00  0.362E+00
   4.099  0.497E+00  0.366E+00
   4.119  0.502E+00  0.370E+00
   4.139  0.506E+00  0.374E+00
   4.159  0.510E+00  0.377E+00
   4.179  0.514E+00  0.380E+00
   4.199  0.518E+00  0.383E+00
   4.219  0.521E+00  0.385E+00
   4.239  0.524E+00  0.388E+00
   4.259  0.526E+00  0.390E+00
   4.279  0.528E+00  0.391E+00
   4.299  0.530E+00  0.393E+00
   4.319  0.532E+00  0.394E+00
   4.339  0.533E+00  0.396E+00
   4.359  0.535E+00  0.396E+00
   4.379  0.535E+00  0.397E+00
   4.399  0.536E+00  0.398E+00
   4.419  0.536E+00  0.398E+00
   4.439  0.536E+00  0.398E+00
   4.459  0.536E+00  0.398E+00
   4.479  0.536E+00  0.398E+00
   4.499  0.535E+00  0.397E+00
   4.519  0.535E+00  0.397E+00
   4.539  0.534E+00  0.396E+00
   4.559  0.532E+00  0.395E+00
   4.579  0.531E+00  0.394E+00
   4.599  0.530E+00  0.393E+00
   4.619  0.528E+00  0.391E+00
   4.639  0.526E+00  0.390E+00
   4.659  0.524E+00  0.389E+00
   4.679  0.522E+00  0.387E+00
   4.699  0.520E+00  0.385E+00
   4.719  0.518E+00  0.384E+00
   4.739  0.516E+00  0.382E+00
   4.759  0.513E+00  0.380E+00
   4.779  0.511E+00  0.378E+00
   4.799  0.508E+00  0.377E+00
   4.819  0.506E+00  0.375E+00
   4.839  0.503E+00  0.373E+00
   4.859  0.501E+00  0.371E+00
   4.879  0.498E+00  0.369E+00
   4.899  0.495E+00  0.367E+00
   4.919  0.493E+00  0.365E+00
   4.939  0.490E+00  0.363E+00
   4.959  0.487E+00  0.361E+00
   4.979  0.485E+00  0.359E+00
   4.999  0.482E+00  0.357E+00
   5.019  0.479E+00  0.355E+00
   5.039  0.477E+00  0.353E+00
   5.059  0.474E+00  0.351E+00
   5.079  0.472E+00  0.350E+00
   5.099  0.469E+00  0.348E+00
   5.119  0.467E+00  0.346E+00
   5.139  0.464E+00  0.344E+00
   5.159  0.462E+00  0.343E+00
   5.179  0.459E+00  0.341E+00
   5.199  0.457E+00  0.339E+00
   5.219  0.455E+00  0.338E+00
   5.239  0.453E+00  0.336E+00
   5.259  0.450E+00  0.335E+00
   5.279  0.448E+00  0.333E+00
   5.299  0.446E+00  0.332E+00
   5.319  0.444E+00  0.330E+00
   5.339  0.442E+00  0.329E+00
   5.359  0.441E+00  0.328E+00
   5.379  0.439E+00  0.326E+00
   5.399  0.437E+00  0.325E+00
   5.419  0.435E+00  0.324E+00
   5.439  0.434E+00  0.323E+00
   5.459  0.432E+00  0.322E+00
   5.479  0.431E+00  0.321E+00
   5.499  0.430E+00  0.320E+00
   5.519  0.428E+00  0.319E+00
   5.539  0.427E+00  0.318E+00
   5.559  0.426E+00  0.317E+00
   5.579  0.425E+00  0.316E+00
   5.599  0.424E+00  0.316E+00
   5.619  0.423E+00  0.315E+00
   5.639  0.423E+00  0.314E+00
   5.659  0.422E+00  0.314E+00
   5.679  0.422E+00  0.314E+00
   5.699  0.421E+00  0.313E+00
   5.719  0.421E+00  0.313E+00
   5.739  0.421E+00  0.313E+00
   5.759  0.421E+00  0.313E+00
   5.779  0.421E+00  0.313E+00
   5.799  0.421E+00  0.313E+00
   5.819  0.421E+00  0.313E+00
   5.839  0.422E+00  0.313E+00
   5.859  0.422E+00  0.313E+00
   5.879  0.423E+00  0.314E+00
   5.899  0.424E+00  0.314E+00
   5.919  0.425E+00  0.315E+00
   5.939  0.426E+00  0.315E+00
   5.959  0.427E+00  0.316E+00
   5.979  0.429E+00  0.317E+00
   5.999  0.430E+00  0.318E+00
   6.019  0.432E+00  0.319E+00
   6.039  0.433E+00  0.320E+00
   6.059  0.435E+00  0.321E+00
   6.079  0.437E+00  0.322E+00
   6.099  0.439E+00  0.324E+00
   6.119  0.441E+00  0.325E+00
   6.139  0.444E+00  0.327E+00
   6.159  0.446E+00  0.328E+00
   6.179  0.449E+00  0.330E+00
   6.199  0.451E+00  0.332E+00
   6.219  0.454E+00  0.334E+00
   6.239  0.457E+00  0.335E+00
   6.259  0.460E+00  0.337E+00
   6.279  0.463E+00  0.340E+00
   6.299  0.466E+00  0.342E+00
   6.319  0.469E+00  0.344E+00
   6.339  0.472E+00  0.346E+00
   6.359  0.476E+00  0.348E+00
   6.379  0.479E+00  0.351E+00
   6.399  0.482E+00  0.353E+00
   6.419  0.486E+00  0.355E+00
   6.439  0.490E+00  0.358E+00
   6.459  0.493E+00  0.360E+00
   6.479  0.497E+00  0.362E+00
   6.499  0.500E+00  0.365E+00
   6.519  0.504E+00  0.367E+00
   6.539  0.508E+00  0.370E+00
   6.559  0.511E+00  0.372E+00
   6.579  0.515E+00  0.375E+00
   6.599  0.519E+00  0.377E+00
   6.619  0.523E+00  0.379E+00
   6.639  0.526E+00  0.382E+00
   6.659  0.530E+00  0.384E+00
   6.679  0.533E+00  0.386E+00
   6.699  0.537E+00  0.388E+00
   6.719  0.540E+00  0.390E+00
   6.739  0.544E+00  0.393E+00
   6.759  0.547E+00  0.395E+00
   6.779  0.551E+00  0.396E+00
   6.799  0.554E+00  0.398E+00
   6.819  0.557E+00  0.400E+00
   6.839  0.560E+00  0.402E+00
   6.859  0.563E+00  0.403E+00
   6.879  0.566E+00  0.405E+00
   6.899  0.569E+00  0.406E+00
   6.919  0.571E+00  0.407E+00
   6.939  0.574E+00  0.408E+00
   6.959  0.576E+00  0.409E+00
   6.979  0.579E+00  0.410E+00
   6.999  0.581E+00  0.411E+00
   7.019  0.583E+00  0.412E+00
   7.039  0.585E+00  0.412E+00
   7.059  0.587E+00  0.413E+00
   7.079  0.588E+00  0.413E+00
   7.099  0.590E+00  0.413E+00
   7.119  0.591E+00  0.413E+00
   7.139  0.592E+00  0.413E+00
   7.159  0.594E+00  0.413E+00
   7.179  0.595E+00  0.413E+00
   7.199  0.595E+00  0.412E+00
   7.219  0.596E+00  0.411E+00
   7.239  0.597E+00  0.411E+00
   7.259  0.597E+00  0.410E+00
   7.279  0.598E+00  0.409E+00
   7.299  0.598E+00  0.408E+00
   7.319  0.598E+00  0.407E+00
   7.339  0.598E+00  0.405E+00
   7.359  0.598E+00  0.404E+00
   7.379  0.598E+00  0.402E+00
   7.399  0.597E+00  0.401E+00
   7.419  0.597E+00  0.399E+00
   7.439  0.596E+00  0.397E+00
   7.459  0.596E+00  0.396E+00
   7.479  0.595E+00  0.394E+00
   7.499  0.594E+00  0.392E+00
   7.519  0.593E+00  0.390E+00
   7.539  0.592E+00  0.387E+00
   7.559  0.591E+00  0.385E+00
   7.579  0.590E+00  0.383E+00
   7.599  0.589E+00  0.381E+00
   7.619  0.588E+00  0.378E+00
   7.639  0.587E+00  0.376E+00
   7.659  0.586E+00  0.374E+00
   7.679  0.584E+00  0.371E+00
   7.699  0.583E+00  0.369E+00
   7.719  0.582E+00  0.366E+00
   7.739  0.580E+00  0.364E+00
   7.759  0.579E+00  0.361E+00
   7.779  0.577E+00  0.359E+00
   7.799  0.576E+00  0.356E+00
   7.819  0.575E+00  0.354E+00
   7.839  0.573E+00  0.351E+00
   7.859  0.571E+00  0.349E+00
   7.879  0.570E+00  0.346E+00
   7.899  0.568E+00  0.344E+00
   7.919  0.567E+00  0.341E+00
   7.939  0.565E+00  0.339E+00
   7.959  0.564E+00  0.336E+00
   7.979  0.562E+00  0.334E+00
   7.999  0.561E+00  0.332E+00
   8.019  0.559E+00  0.329E+00
   8.039  0.558E+00  0.327E+00
   8.059  0.556E+00  0.325E+00
   8.079  0.555E+00  0.322E+00
   8.099  0.553E+00  0.320E+00
   8.119  0.552E+00  0.318E+00
   8.139  0.550E+00  0.316E+00
   8.159  0.549E+00  0.314E+00
   8.179  0.547E+00  0.311E+00
   8.199  0.546E+00  0.309E+00
   8.219  0.545E+00  0.307E+00
   8.239  0.543E+00  0.306E+00
   8.259  0.542E+00  0.304E+00
   8.279  0.541E+00  0.302E+00
   8.299  0.540E+00  0.300E+00
   8.319  0.539E+00  0.299E+00
   8.339  0.537E+00  0.297E+00
   8.359  0.536E+00  0.295E+00
   8.379  0.535E+00  0.294E+00
   8.399  0.534E+00  0.293E+00
   8.419  0.534E+00  0.291E+00
   8.439  0.533E+00  0.290E+00
   8.459  0.532E+00  0.289E+00
   8.479  0.531E+00  0.288E+00
   8.499  0.531E+00  0.287E+00
   8.519  0.530E+00  0.286E+00
   8.539  0.530E+00  0.285E+00
   8.559  0.529E+00  0.284E+00
   8.579  0.529E+00  0.284E+00
   8.599  0.529E+00  0.283E+00
   8.619  0.528E+00  0.283E+00
   8.639  0.528E+00  0.282E+00
   8.659  0.528E+00  0.282E+00
   8.679  0.528E+00  0.282E+00
   8.699  0.528E+00  0.282E+00
   8.719  0.528E+00  0.282E+00
   8.739  0.529E+00  0.282E+00
   8.759  0.529E+00  0.282E+00
   8.779  0.529E+00  0.282E+00
   8.799  0.530E+00  0.282E+00
   8.819  0.530E+00  0.283E+00
   8.839  0.531E+00  0.283E+00
   8.859  0.532E+00  0.284E+00
   8.879  0.532E+00  0.284E+00
   8.899  0.533E+00  0.285E+00
   8.919  0.534E+00  0.286E+00
   8.939  0.535E+00  0.287E+00
   8.959  0.536E+00  0.288E+00
   8.979  0.537E+00  0.289E+00
   8.999  0.538E+00  0.290E+00
   9.019  0.539E+00  0.291E+00
   9.039  0.541E+00  0.292E+00
   9.059  0.542E+00  0.293E+00
   9.079  0.543E+00  0.295E+00
   9.099  0.545E+00  0.296E+00
   9.119  0.546E+00  0.297E+00
   9.139  0.548E+00  0.299E+00
   9.159  0.549E+00  0.300E+00
   9.179  0.551E+00  0.302E+00
   9.199  0.552E+00  0.303E+00
   9.219  0.554E+00  0.305E+00
   9.239  0.556E+00  0.307E+00
   9.259  0.558E+00  0.308E+00
   9.279  0.559E+00  0.310E+00
   9.299  0.561E+00  0.312E+00
   9.319  0.563E+00  0.314E+00
   9.339  0.565E+00  0.315E+00
   9.359  0.567E+00  0.317E+00
   9.379  0.569E+00  0.319E+00
   9.399  0.571E+00  0.321E+00
   9.419  0.573E+00  0.323E+00
   9.439  0.575E+00  0.325E+00
   9.459  0.576E+00  0.326E+00
   9.479  0.578E+00  0.328E+00
   9.499  0.580E+00  0.330E+00
   9.519  0.582E+00  0.332E+00
   9.539  0.584E+00  0.334E+00
   9.559  0.586E+00  0.336E+00
   9.579  0.588E+00  0.337E+00
   9.599  0.590E+00  0.339E+00
   9.619  0.592E+00  0.341E+00
   9.639  0.594E+00  0.343E+00
   9.659  0.595E+00  0.345E+00
   9.679  0.597E+00  0.346E+00
   9.699  0.599E+00  0.348E+00
   9.719  0.601E+00  0.350E+00
   9.739  0.602E+00  0.352E+00
   9.759  0.604E+00  0.353E+00
   9.779  0.606E+00  0.355E+00
   9.799  0.607E+00  0.357E+00
   9.819  0.609E+00  0.358E+00
   9.839  0.610E+00  0.360E+00
   9.859  0.612E+00  0.362E+00
   9.879  0.613E+00  0.363E+00
   9.899  0.615E+00  0.365E+00
   9.919  0.616E+00  0.366E+00
   9.939  0.617E+00  0.368E+00
   9.959  0.619E+00  0.369E+00
   9.979  0.620E+00  0.371E+00
   9.999  0.621E+00  0.372E+00
  10.019  0.623E+00  0.374E+00
  10.039  0.624E+00  0.375E+00
  10.059  0.625E+00  0.377E+00
  10.079  0.626E+00  0.378E+00
  10.099  0.627E+00  0.380E+00
  10.119  0.628E+00  0.381E+00
  10.139  0.629E+00  0.382E+00
  10.159  0.630E+00  0.384E+00
  10.179  0.631E+00  0.385E+00
  10.199  0.632E+00  0.386E+00
  10.219  0.633E+00  0.388E+00
  10.239  0.634E+00  0.389E+00
  10.259  0.634E+00  0.390E+00
  10.279  0.635E+00  0.392E+00
  10.299  0.636E+00  0.393E+00
  10.319  0.637E+00  0.394E+00
  10.339  0.637E+00  0.396E+00
  10.359  0.638E+00  0.397E+00
  10.379  0.639E+00  0.398E+00
  10.399  0.639E+00  0.399E+00
  10.419  0.640E+00  0.401E+00
  10.439  0.640E+00  0.402E+00
  10.459  0.641E+00  0.403E+00
  10.479  0.641E+00  0.404E+00
  10.499  0.642E+00  0.405E+00
  10.519  0.642E+00  0.406E+00
  10.539  0.643E+00  0.408E+00
  10.559  0.643E+00  0.409E+00
  10.579  0.644E+00  0.410E+00
  10.599  0.644E+00  0.411E+00
  10.619  0.644E+00  0.412E+00
  10.639  0.645E+00  0.413E+00
  10.659  0.645E+00  0.414E+00
  10.679  0.645E+00  0.415E+00
  10.699  0.645E+00  0.416E+00
  10.719  0.645E+00  0.417E+00
  10.739  0.645E+00  0.417E+00
  10.759  0.646E+00  0.418E+00
  10.779  0.646E+00  0.419E+00
  10.799  0.646E+00  0.420E+00
  10.819  0.646E+00  0.421E+00
  10.839  0.645E+00  0.421E+00
  10.859  0.645E+00  0.422E+00
  10.879  0.645E+00  0.422E+00
  10.899  0.645E+00  0.423E+00
  10.919  0.645E+00  0.423E+00
  10.939  0.644E+00  0.424E+00
  10.959  0.644E+00  0.424E+00
  10.979  0.644E+00  0.425E+00
  10.999  0.643E+00  0.425E+00
  11.019  0.643E+00  0.426E+00
  11.039  0.642E+00  0.426E+00
  11.059  0.642E+00  0.426E+00
  11.079  0.641E+00  0.426E+00
  11.099  0.641E+00  0.427E+00
  11.119  0.641E+00  0.427E+00
  11.139  0.640E+00  0.427E+00
  11.159  0.640E+00  0.427E+00
  11.179  0.639E+00  0.428E+00
  11.199  0.639E+00  0.428E+00
  11.219  0.638E+00  0.428E+00
  11.239  0.638E+00  0.428E+00
  11.259  0.638E+00  0.428E+00
  11.279  0.637E+00  0.429E+00
  11.299  0.637E+00  0.429E+00
  11.319  0.637E+00  0.429E+00
  11.339  0.637E+00  0.430E+00
  11.359  0.637E+00  0.430E+00
  11.379  0.637E+00  0.431E+00
  11.399  0.637E+00  0.431E+00
  11.419  0.638E+00  0.432E+00
  11.439  0.638E+00  0.432E+00
  11.459  0.638E+00  0.433E+00
  11.479  0.639E+00  0.434E+00
  11.499  0.640E+00  0.434E+00
  11.519  0.641E+00  0.435E+00
  11.539  0.642E+00  0.436E+00
  11.559  0.643E+00  0.437E+00
  11.579  0.644E+00  0.438E+00
  11.599  0.646E+00  0.440E+00
  11.619  0.647E+00  0.441E+00
  11.639  0.649E+00  0.442E+00
  11.659  0.651E+00  0.444E+00
  11.679  0.653E+00  0.445E+00
  11.699  0.655E+00  0.447E+00
  11.719  0.658E+00  0.449E+00
  11.739  0.660E+00  0.450E+00
  11.759  0.663E+00  0.452E+00
  11.779  0.666E+00  0.454E+00
  11.799  0.669E+00  0.456E+00
  11.819  0.672E+00  0.458E+00
  11.839  0.675E+00  0.461E+00
  11.859  0.678E+00  0.463E+00
  11.879  0.682E+00  0.465E+00
  11.899  0.685E+00  0.468E+00
  11.919  0.689E+00  0.470E+00
  11.939  0.693E+00  0.473E+00
  11.959  0.697E+00  0.476E+00
  11.979  0.701E+00  0.478E+00
  11.999  0.705E+00  0.481E+00
  12.019  0.709E+00  0.484E+00
  12.039  0.713E+00  0.487E+00
  12.059  0.717E+00  0.490E+00
  12.079  0.722E+00  0.493E+00
  12.099  0.726E+00  0.496E+00
  12.119  0.731E+00  0.499E+00
  12.139  0.735E+00  0.502E+00
  12.159  0.740E+00  0.505E+00
  12.179  0.744E+00  0.508E+00
  12.199  0.749E+00  0.511E+00
  12.219  0.754E+00  0.514E+00
  12.239  0.758E+00  0.517E+00
  12.259  0.763E+00  0.520E+00
  12.279  0.767E+00  0.523E+00
  12.299  0.772E+00  0.526E+00
  12.319  0.776E+00  0.529E+00
  12.339  0.780E+00  0.532E+00
  12.359  0.785E+00  0.535E+00
  12.379  0.789E+00  0.538E+00
  12.399  0.793E+00  0.541E+00
  12.419  0.797E+00  0.544E+00
  12.439  0.801E+00  0.546E+00
  12.459  0.805E+00  0.549E+00
  12.479  0.808E+00  0.552E+00
  12.499  0.812E+00  0.554E+00
  12.519  0.815E+00  0.556E+00
  12.539  0.818E+00  0.558E+00
  12.559  0.821E+00  0.560E+00
  12.579  0.824E+00  0.562E+00
  12.599  0.826E+00  0.564E+00
  12.619  0.829E+00  0.566E+00
  12.639  0.831E+00  0.567E+00
  12.659  0.832E+00  0.569E+00
  12.679  0.834E+00  0.570E+00
  12.699  0.835E+00  0.571E+00
  12.719  0.836E+00  0.572E+00
  12.739  0.837E+00  0.573E+00
  12.759  0.838E+00  0.573E+00
  12.779  0.838E+00  0.573E+00
  12.799  0.838E+00  0.573E+00
  12.819  0.837E+00  0.573E+00
  12.839  0.837E+00  0.573E+00
  12.859  0.836E+00  0.573E+00
  12.879  0.835E+00  0.572E+00
  12.899  0.833E+00  0.571E+00
  12.919  0.832E+00  0.570E+00
  12.939  0.829E+00  0.569E+00
  12.959  0.827E+00  0.568E+00
  12.979  0.825E+00  0.566E+00
  12.999  0.822E+00  0.564E+00
  13.019  0.818E+00  0.562E+00
  13.039  0.815E+00  0.560E+00
  13.059  0.811E+00  0.558E+00
  13.079  0.807E+00  0.556E+00
  13.099  0.803E+00  0.553E+00
  13.119  0.799E+00  0.550E+00
  13.139  0.794E+00  0.547E+00
  13.159  0.789E+00  0.544E+00
  13.179  0.784E+00  0.541E+00
  13.199  0.779E+00  0.537E+00
  13.219  0.773E+00  0.534E+00
  13.239  0.767E+00  0.530E+00
  13.259  0.761E+00  0.526E+00
  13.279  0.755E+00  0.523E+00
  13.299  0.749E+00  0.519E+00
  13.319  0.742E+00  0.514E+00
  13.339  0.735E+00  0.510E+00
  13.359  0.729E+00  0.506E+00
  13.379  0.722E+00  0.501E+00
  13.399  0.714E+00  0.497E+00
  13.419  0.707E+00  0.492E+00
  13.439  0.700E+00  0.488E+00
  13.459  0.692E+00  0.483E+00
  13.479  0.685E+00  0.478E+00
  13.499  0.677E+00  0.473E+00
  13.519  0.669E+00  0.468E+00
  13.539  0.662E+00  0.463E+00
  13.559  0.654E+00  0.458E+00
  13.579  0.646E+00  0.453E+00
  13.599  0.638E+00  0.448E+00
  13.619  0.630E+00  0.443E+00
  13.639  0.622E+00  0.438E+00
  13.659  0.614E+00  0.433E+00
  13.679  0.606E+00  0.428E+00
  13.699  0.598E+00  0.423E+00
  13.719  0.591E+00  0.418E+00
  13.739  0.583E+00  0.413E+00
  13.759  0.575E+00  0.408E+00
  13.779  0.567E+00  0.403E+00
  13.799  0.559E+00  0.399E+00
  13.819  0.552E+00  0.394E+00
  13.839  0.544E+00  0.389E+00
  13.859  0.537E+00  0.384E+00
  13.879  0.529E+00  0.380E+00
  13.899  0.522E+00  0.375E+00
  13.919  0.515E+00  0.371E+00
  13.939  0.508E+00  0.366E+00
  13.959  0.501E+00  0.362E+00
  13.979  0.494E+00  0.358E+00
  13.999  0.488E+00  0.353E+00
  14.019  0.481E+00  0.349E+00
  14.039  0.475E+00  0.345E+00
  14.059  0.468E+00  0.341E+00
  14.079  0.462E+00  0.338E+00
  14.099  0.456E+00  0.334E+00
  14.119  0.451E+00  0.330E+00
  14.139  0.445E+00  0.327E+00
  14.159  0.439E+00  0.323E+00
  14.179  0.434E+00  0.320E+00
  14.199  0.429E+00  0.317E+00
  14.219  0.424E+00  0.314E+00
  14.239  0.419E+00  0.310E+00
  14.259  0.414E+00  0.307E+00
  14.279  0.409E+00  0.305E+00
  14.299  0.405E+00  0.302E+00
  14.319  0.400E+00  0.299E+00
  14.339  0.396E+00  0.296E+00
  14.359  0.392E+00  0.294E+00
  14.379  0.388E+00  0.291E+00
  14.399  0.384E+00  0.289E+00
  14.419  0.380E+00  0.287E+00
  14.439  0.377E+00  0.285E+00
  14.459  0.373E+00  0.282E+00
  14.479  0.370E+00  0.280E+00
  14.499  0.367E+00  0.278E+00
  14.519  0.364E+00  0.276E+00
  14.539  0.361E+00  0.275E+00
  14.559  0.358E+00  0.273E+00
  14.579  0.355E+00  0.271E+00
  14.599  0.353E+00  0.270E+00
  14.619  0.350E+00  0.268E+00
  14.639  0.348E+00  0.267E+00
  14.659  0.345E+00  0.265E+00
  14.679  0.343E+00  0.264E+00
  14.699  0.341E+00  0.263E+00
  14.719  0.339E+00  0.261E+00
  14.739  0.337E+00  0.260E+00
  14.759  0.336E+00  0.259E+00
  14.779  0.334E+00  0.258E+00
  14.799  0.333E+00  0.257E+00
  14.819  0.331E+00  0.256E+00
  14.839  0.330E+00  0.256E+00
  14.859  0.329E+00  0.255E+00
  14.879  0.328E+00  0.254E+00
  14.899  0.327E+00  0.254E+00
  14.919  0.326E+00  0.253E+00
  14.939  0.325E+00  0.253E+00
  14.959  0.325E+00  0.253E+00
  14.979  0.324E+00  0.252E+00
  14.999  0.324E+00  0.252E+00
  15.019  0.324E+00  0.252E+00
  15.039  0.324E+00  0.252E+00
  15.059  0.324E+00  0.252E+00
  15.079  0.324E+00  0.252E+00
  15.099  0.324E+00  0.252E+00
  15.119  0.324E+00  0.252E+00
  15.139  0.325E+00  0.253E+00
  15.159  0.325E+00  0.253E+00
  15.179  0.326E+00  0.253E+00
  15.199  0.326E+00  0.254E+00
  15.219  0.327E+00  0.255E+00
  15.239  0.328E+00  0.255E+00
  15.259  0.329E+00  0.256E+00
  15.279  0.330E+00  0.257E+00
  15.299  0.331E+00  0.257E+00
  15.319  0.332E+00  0.258E+00
  15.339  0.334E+00  0.259E+00
  15.359  0.335E+00  0.260E+00
  15.379  0.337E+00  0.261E+00
  15.399  0.338E+00  0.262E+00
  15.419  0.340E+00  0.263E+00
  15.439  0.342E+00  0.264E+00
  15.459  0.343E+00  0.266E+00
  15.479  0.345E+00  0.267E+00
  15.499  0.347E+00  0.268E+00
  15.519  0.349E+00  0.269E+00
  15.539  0.351E+00  0.271E+00
  15.559  0.353E+00  0.272E+00
  15.579  0.355E+00  0.273E+00
  15.599  0.357E+00  0.275E+00
  15.619  0.359E+00  0.276E+00
  15.639  0.361E+00  0.277E+00
  15.659  0.363E+00  0.279E+00
  15.679  0.365E+00  0.280E+00
  15.699  0.367E+00  0.281E+00
  15.719  0.369E+00  0.283E+00
  15.739  0.371E+00  0.284E+00
  15.759  0.373E+00  0.285E+00
  15.779  0.375E+00  0.286E+00
  15.799  0.377E+00  0.288E+00
  15.819  0.378E+00  0.289E+00
  15.839  0.380E+00  0.290E+00
  15.859  0.382E+00  0.291E+00
  15.879  0.384E+00  0.292E+00
  15.899  0.385E+00  0.293E+00
  15.919  0.387E+00  0.294E+00
  15.939  0.388E+00  0.295E+00
  15.959  0.389E+00  0.295E+00
  15.979  0.391E+00  0.296E+00
  15.999  0.392E+00  0.297E+00
  16.019  0.393E+00  0.297E+00
  16.039  0.394E+00  0.298E+00
  16.059  0.395E+00  0.298E+00
  16.079  0.395E+00  0.298E+00
  16.099  0.396E+00  0.298E+00
  16.119  0.396E+00  0.299E+00
  16.139  0.397E+00  0.298E+00
  16.159  0.397E+00  0.298E+00
  16.179  0.397E+00  0.298E+00
  16.199  0.397E+00  0.298E+00
  16.219  0.397E+00  0.297E+00
  16.239  0.396E+00  0.297E+00
  16.259  0.396E+00  0.296E+00
  16.279  0.395E+00  0.295E+00
  16.299  0.394E+00  0.294E+00
  16.319  0.394E+00  0.294E+00
  16.339  0.393E+00  0.292E+00
  16.359  0.392E+00  0.291E+00
  16.379  0.390E+00  0.290E+00
  16.399  0.389E+00  0.289E+00
  16.419  0.388E+00  0.287E+00
  16.439  0.386E+00  0.286E+00
  16.459  0.385E+00  0.284E+00
  16.479  0.383E+00  0.283E+00
  16.499  0.381E+00  0.281E+00
  16.519  0.379E+00  0.279E+00
  16.539  0.378E+00  0.278E+00
  16.559  0.376E+00  0.276E+00
  16.579  0.374E+00  0.274E+00
  16.599  0.372E+00  0.272E+00
  16.619  0.369E+00  0.270E+00
  16.639  0.367E+00  0.268E+00
  16.659  0.365E+00  0.266E+00
  16.679  0.363E+00  0.264E+00
  16.699  0.361E+00  0.262E+00
  16.719  0.358E+00  0.260E+00
  16.739  0.356E+00  0.258E+00
  16.759  0.354E+00  0.256E+00
  16.779  0.351E+00  0.254E+00
  16.799  0.349E+00  0.252E+00
  16.819  0.347E+00  0.249E+00
  16.839  0.345E+00  0.247E+00
  16.859  0.342E+00  0.245E+00
  16.879  0.340E+00  0.243E+00
  16.899  0.338E+00  0.241E+00
  16.919  0.335E+00  0.239E+00
  16.939  0.333E+00  0.237E+00
  16.959  0.331E+00  0.235E+00
  16.979  0.329E+00  0.233E+00
  16.999  0.327E+00  0.231E+00
  17.019  0.324E+00  0.229E+00
  17.039  0.322E+00  0.228E+00
  17.059  0.320E+00  0.226E+00
  17.079  0.318E+00  0.224E+00
  17.099  0.316E+00  0.222E+00
  17.119  0.314E+00  0.220E+00
  17.139  0.312E+00  0.218E+00
  17.159  0.310E+00  0.217E+00
  17.179  0.308E+00  0.215E+00
  17.199  0.306E+00  0.213E+00
  17.219  0.304E+00  0.212E+00
  17.239  0.302E+00  0.210E+00
  17.259  0.300E+00  0.208E+00
  17.279  0.298E+00  0.207E+00
  17.299  0.296E+00  0.205E+00
  17.319  0.294E+00  0.203E+00
  17.339  0.293E+00  0.202E+00
  17.359  0.291E+00  0.200E+00
  17.379  0.289E+00  0.198E+00
  17.399  0.287E+00  0.197E+00
  17.419  0.285E+00  0.195E+00
  17.439  0.283E+00  0.194E+00
  17.459  0.282E+00  0.192E+00
  17.479  0.280E+00  0.191E+00
  17.499  0.278E+00  0.189E+00
  17.519  0.276E+00  0.187E+00
  17.539  0.274E+00  0.186E+00
  17.559  0.273E+00  0.184E+00
  17.579  0.271E+00  0.183E+00
  17.599  0.269E+00  0.181E+00
  17.619  0.268E+00  0.180E+00
  17.639  0.266E+00  0.178E+00
  17.659  0.264E+00  0.177E+00
  17.679  0.262E+00  0.175E+00
  17.699  0.261E+00  0.174E+00
  17.719  0.259E+00  0.172E+00
  17.739  0.257E+00  0.171E+00
  17.759  0.256E+00  0.169E+00
  17.779  0.254E+00  0.168E+00
  17.799  0.252E+00  0.166E+00
  17.819  0.251E+00  0.165E+00
  17.839  0.249E+00  0.163E+00
  17.859  0.247E+00  0.162E+00
  17.879  0.246E+00  0.160E+00
  17.899  0.244E+00  0.158E+00
  17.919  0.242E+00  0.157E+00
  17.939  0.241E+00  0.155E+00
  17.959  0.239E+00  0.154E+00
  17.979  0.237E+00  0.152E+00
  17.999  0.236E+00  0.151E+00
  18.019  0.234E+00  0.149E+00
  18.039  0.233E+00  0.148E+00
  18.059  0.231E+00  0.146E+00
  18.079  0.229E+00  0.145E+00
  18.099  0.228E+00  0.143E+00
  18.119  0.226E+00  0.142E+00
  18.139  0.225E+00  0.140E+00
  18.159  0.223E+00  0.139E+00
  18.179  0.221E+00  0.137E+00
  18.199  0.220E+00  0.136E+00
  18.219  0.218E+00  0.134E+00
  18.239  0.217E+00  0.133E+00
  18.259  0.215E+00  0.131E+00
  18.279  0.213E+00  0.130E+00
  18.299  0.212E+00  0.128E+00
  18.319  0.210E+00  0.127E+00
  18.339  0.209E+00  0.125E+00
  18.359  0.207E+00  0.124E+00
  18.379  0.205E+00  0.122E+00
  18.399  0.204E+00  0.121E+00
  18.419  0.202E+00  0.119E+00
  18.439  0.200E+00  0.118E+00
  18.459  0.199E+00  0.116E+00
  18.479  0.197E+00  0.115E+00
  18.499  0.196E+00  0.113E+00
  18.519  0.194E+00  0.112E+00
  18.539  0.192E+00  0.111E+00
  18.559  0.191E+00  0.109E+00
  18.579  0.189E+00  0.108E+00
  18.599  0.187E+00  0.106E+00
  18.619  0.186E+00  0.105E+00
  18.639  0.184E+00  0.103E+00
  18.659  0.182E+00  0.102E+00
  18.679  0.181E+00  0.101E+00
  18.699  0.179E+00  0.991E-01
  18.719  0.177E+00  0.977E-01
  18.739  0.176E+00  0.963E-01
  18.759  0.174E+00  0.949E-01
  18.779  0.172E+00  0.935E-01
  18.799  0.170E+00  0.922E-01
  18.819  0.169E+00  0.908E-01
  18.839  0.167E+00  0.894E-01
  18.859  0.165E+00  0.881E-01
  18.879  0.163E+00  0.868E-01
  18.899  0.162E+00  0.854E-01
  18.919  0.160E+00  0.841E-01
  18.939  0.158E+00  0.828E-01
  18.959  0.157E+00  0.815E-01
  18.979  0.155E+00  0.802E-01
  18.999  0.153E+00  0.790E-01
  19.019  0.152E+00  0.777E-01
  19.039  0.150E+00  0.765E-01
  19.059  0.148E+00  0.752E-01
  19.079  0.147E+00  0.740E-01
  19.099  0.145E+00  0.728E-01
  19.119  0.143E+00  0.717E-01
  19.139  0.142E+00  0.705E-01
  19.159  0.140E+00  0.694E-01
  19.179  0.139E+00  0.683E-01
  19.199  0.137E+00  0.672E-01
  19.219  0.136E+00  0.662E-01
  19.239  0.135E+00  0.651E-01
  19.259  0.133E+00  0.641E-01
  19.279  0.132E+00  0.632E-01
  19.299  0.131E+00  0.622E-01
  19.319  0.129E+00  0.613E-01
  19.339  0.128E+00  0.604E-01
  19.359  0.127E+00  0.595E-01
  19.379  0.126E+00  0.587E-01
  19.399  0.125E+00  0.579E-01
  19.419  0.124E+00  0.571E-01
  19.439  0.123E+00  0.563E-01
  19.459  0.122E+00  0.556E-01
  19.479  0.121E+00  0.549E-01
  19.499  0.120E+00  0.542E-01
  19.519  0.119E+00  0.536E-01
  19.539  0.118E+00  0.529E-01
  19.559  0.117E+00  0.523E-01
  19.579  0.116E+00  0.517E-01
  19.599  0.116E+00  0.512E-01
  19.619  0.115E+00  0.507E-01
  19.639  0.114E+00  0.501E-01
  19.659  0.114E+00  0.497E-01
  19.679  0.113E+00  0.492E-01
  19.699  0.112E+00  0.487E-01
  19.719  0.112E+00  0.483E-01
  19.739  0.111E+00  0.479E-01
  19.759  0.110E+00  0.474E-01
  19.779  0.110E+00  0.470E-01
  19.799  0.109E+00  0.467E-01
  19.819  0.108E+00  0.463E-01
  19.839  0.108E+00  0.459E-01
  19.859  0.107E+00  0.456E-01
  19.879  0.106E+00  0.452E-01
  19.899  0.106E+00  0.449E-01
  19.919  0.105E+00  0.445E-01
  19.939  0.104E+00  0.442E-01
  19.959  0.104E+00  0.439E-01
  19.979  0.103E+00  0.435E-01
  19.999  0.102E+00  0.432E-01
  20.019  0.102E+00  0.429E-01
  20.039  0.101E+00  0.426E-01
  20.059  0.100E+00  0.423E-01
  20.079  0.994E-01  0.420E-01
  20.099  0.987E-01  0.417E-01
  20.119  0.979E-01  0.414E-01
  20.139  0.972E-01  0.412E-01
  20.159  0.964E-01  0.409E-01
  20.179  0.956E-01  0.406E-01
  20.199  0.949E-01  0.404E-01
  20.219  0.941E-01  0.401E-01
  20.239  0.933E-01  0.398E-01
  20.259  0.926E-01  0.396E-01
  20.279  0.918E-01  0.394E-01
  20.299  0.910E-01  0.391E-01
  20.319  0.903E-01  0.389E-01
  20.339  0.895E-01  0.387E-01
  20.359  0.888E-01  0.385E-01
  20.379  0.880E-01  0.383E-01
  20.399  0.873E-01  0.381E-01
  20.419  0.866E-01  0.379E-01
  20.439  0.859E-01  0.377E-01
  20.459  0.852E-01  0.376E-01
  20.479  0.845E-01  0.374E-01
  20.499  0.839E-01  0.373E-01
  20.519  0.832E-01  0.372E-01
  20.539  0.826E-01  0.370E-01
  20.559  0.819E-01  0.369E-01
  20.579  0.813E-01  0.368E-01
  20.599  0.807E-01  0.367E-01
  20.619  0.801E-01  0.366E-01
  20.639  0.795E-01  0.366E-01
  20.659  0.790E-01  0.365E-01
  20.679  0.784E-01  0.364E-01
  20.699  0.778E-01  0.364E-01
  20.719  0.773E-01  0.363E-01
  20.739  0.768E-01  0.363E-01
  20.759  0.762E-01  0.362E-01
  20.779  0.757E-01  0.362E-01
  20.799  0.752E-01  0.361E-01
  20.819  0.747E-01  0.361E-01
  20.839  0.742E-01  0.360E-01
  20.859  0.736E-01  0.360E-01
  20.879  0.731E-01  0.360E-01
  20.899  0.726E-01  0.359E-01
  20.919  0.721E-01  0.359E-01
  20.939  0.716E-01  0.358E-01
  20.959  0.711E-01  0.358E-01
  20.979  0.705E-01  0.357E-01
  20.999  0.700E-01  0.357E-01
  21.019  0.695E-01  0.356E-01
  21.039  0.689E-01  0.356E-01
  21.059  0.684E-01  0.355E-01
  21.079  0.679E-01  0.354E-01
  21.099  0.673E-01  0.354E-01
  21.119  0.667E-01  0.353E-01
  21.139  0.662E-01  0.352E-01
  21.159  0.656E-01  0.351E-01
  21.179  0.650E-01  0.351E-01
  21.199  0.645E-01  0.350E-01
  21.219  0.639E-01  0.349E-01
  21.239  0.633E-01  0.348E-01
  21.259  0.627E-01  0.347E-01
  21.279  0.621E-01  0.346E-01
  21.299  0.615E-01  0.345E-01
  21.319  0.609E-01  0.343E-01
  21.339  0.603E-01  0.342E-01
  21.359  0.597E-01  0.341E-01
  21.379  0.591E-01  0.340E-01
  21.399  0.585E-01  0.339E-01
  21.419  0.579E-01  0.338E-01
  21.439  0.573E-01  0.337E-01
  21.459  0.568E-01  0.335E-01
  21.479  0.562E-01  0.334E-01
  21.499  0.556E-01  0.333E-01
  21.519  0.550E-01  0.332E-01
  21.539  0.544E-01  0.331E-01
  21.559  0.539E-01  0.330E-01
  21.579  0.533E-01  0.328E-01
  21.599  0.528E-01  0.327E-01
  21.619  0.522E-01  0.326E-01
  21.639  0.517E-01  0.325E-01
  21.659  0.511E-01  0.324E-01
  21.679  0.506E-01  0.323E-01
  21.699  0.501E-01  0.321E-01
  21.719  0.496E-01  0.320E-01
  21.739  0.491E-01  0.319E-01
  21.759  0.486E-01  0.318E-01
  21.779  0.481E-01  0.317E-01
  21.799  0.476E-01  0.316E-01
  21.819  0.471E-01  0.314E-01
  21.839  0.466E-01  0.313E-01
  21.859  0.461E-01  0.312E-01
  21.879  0.456E-01  0.310E-01
  21.899  0.452E-01  0.309E-01
  21.919  0.447E-01  0.308E-01
  21.939  0.442E-01  0.306E-01
  21.959  0.437E-01  0.305E-01
  21.979  0.433E-01  0.303E-01
  21.999  0.428E-01  0.302E-01
  22.019  0.423E-01  0.300E-01
  22.039  0.419E-01  0.298E-01
  22.059  0.414E-01  0.297E-01
  22.079  0.409E-01  0.295E-01
  22.099  0.405E-01  0.293E-01
  22.119  0.400E-01  0.291E-01
  22.139  0.395E-01  0.289E-01
  22.159  0.391E-01  0.287E-01
  22.179  0.386E-01  0.285E-01
  22.199  0.381E-01  0.283E-01
  22.219  0.376E-01  0.281E-01
  22.239  0.372E-01  0.278E-01
  22.259  0.367E-01  0.276E-01
  22.279  0.362E-01  0.274E-01
  22.299  0.358E-01  0.271E-01
  22.319  0.353E-01  0.269E-01
  22.339  0.349E-01  0.267E-01
  22.359  0.344E-01  0.264E-01
  22.379  0.339E-01  0.262E-01
  22.399  0.335E-01  0.259E-01
  22.419  0.330E-01  0.257E-01
  22.439  0.326E-01  0.254E-01
  22.459  0.321E-01  0.251E-01
  22.479  0.317E-01  0.249E-01
  22.499  0.312E-01  0.246E-01
  22.519  0.308E-01  0.243E-01
  22.539  0.304E-01  0.241E-01
  22.559  0.299E-01  0.238E-01
  22.579  0.295E-01  0.235E-01
  22.599  0.291E-01  0.233E-01
  22.619  0.286E-01  0.230E-01
  22.639  0.282E-01  0.227E-01
  22.659  0.278E-01  0.224E-01
  22.679  0.274E-01  0.222E-01
  22.699  0.270E-01  0.219E-01
  22.719  0.266E-01  0.216E-01
  22.739  0.262E-01  0.213E-01
  22.759  0.258E-01  0.210E-01
  22.779  0.254E-01  0.208E-01
  22.799  0.250E-01  0.205E-01
  22.819  0.246E-01  0.202E-01
  22.839  0.242E-01  0.199E-01
  22.859  0.238E-01  0.196E-01
  22.879  0.234E-01  0.193E-01
  22.899  0.230E-01  0.190E-01
  22.919  0.226E-01  0.187E-01
  22.939  0.222E-01  0.184E-01
  22.959  0.218E-01  0.181E-01
  22.979  0.214E-01  0.178E-01
  22.999  0.210E-01  0.175E-01
  23.019  0.206E-01  0.172E-01
  23.039  0.202E-01  0.169E-01
  23.059  0.198E-01  0.166E-01
  23.079  0.195E-01  0.163E-01
  23.099  0.191E-01  0.160E-01
  23.119  0.187E-01  0.157E-01
  23.139  0.183E-01  0.154E-01
  23.159  0.179E-01  0.151E-01
  23.179  0.175E-01  0.147E-01
  23.199  0.171E-01  0.144E-01
  23.219  0.167E-01  0.141E-01
  23.239  0.164E-01  0.138E-01
  23.259  0.160E-01  0.135E-01
  23.279  0.156E-01  0.132E-01
  23.299  0.152E-01  0.129E-01
  23.319  0.149E-01  0.126E-01
  23.339  0.145E-01  0.123E-01
  23.359  0.141E-01  0.120E-01
  23.379  0.138E-01  0.117E-01
  23.399  0.134E-01  0.114E-01
  23.419  0.131E-01  0.111E-01
  23.439  0.127E-01  0.108E-01
  23.459  0.124E-01  0.105E-01
  23.479  0.121E-01  0.103E-01
  23.499  0.118E-01  0.999E-02
  23.519  0.114E-01  0.972E-02
  23.539  0.111E-01  0.946E-02
  23.559  0.108E-01  0.920E-02
  23.579  0.105E-01  0.895E-02
  23.599  0.102E-01  0.870E-02
  23.619  0.993E-02  0.846E-02
  23.639  0.965E-02  0.822E-02
  23.659  0.938E-02  0.799E-02
  23.679  0.911E-02  0.777E-02
  23.699  0.885E-02  0.755E-02
  23.719  0.859E-02  0.733E-02
  23.739  0.834E-02  0.712E-02
  23.759  0.810E-02  0.691E-02
  23.779  0.786E-02  0.671E-02
  23.799  0.763E-02  0.651E-02
  23.819  0.740E-02  0.632E-02
  23.839  0.718E-02  0.613E-02
  23.859  0.696E-02  0.595E-02
  23.879  0.674E-02  0.577E-02
  23.899  0.654E-02  0.559E-02
  23.919  0.633E-02  0.542E-02
  23.939  0.613E-02  0.525E-02
  23.959  0.593E-02  0.508E-02
  23.979  0.574E-02  0.491E-02
  23.999  0.555E-02  0.475E-02
  24.019  0.537E-02  0.460E-02
  24.039  0.519E-02  0.444E-02
  24.059  0.501E-02  0.429E-02
  24.079  0.483E-02  0.414E-02
  24.099  0.466E-02  0.399E-02
  24.119  0.449E-02  0.385E-02
  24.139  0.432E-02  0.370E-02
  24.159  0.416E-02  0.356E-02
  24.179  0.400E-02  0.343E-02
  24.199  0.384E-02  0.329E-02
  24.219  0.368E-02  0.316E-02
  24.239  0.353E-02  0.303E-02
  24.259  0.338E-02  0.290E-02
  24.279  0.324E-02  0.278E-02
  24.299  0.310E-02  0.265E-02
  24.319  0.296E-02  0.254E-02
  24.339  0.282E-02  0.242E-02
  24.359  0.269E-02  0.230E-02
  24.379  0.256E-02  0.219E-02
  24.399  0.243E-02  0.208E-02
  24.419  0.231E-02  0.198E-02
  24.439  0.219E-02  0.188E-02
  24.459  0.207E-02  0.178E-02
  24.479  0.196E-02  0.168E-02
  24.499  0.185E-02  0.159E-02
  24.519  0.175E-02  0.150E-02
  24.539  0.165E-02  0.141E-02
  24.559  0.155E-02  0.133E-02
  24.579  0.145E-02  0.125E-02
  24.599  0.136E-02  0.117E-02
  24.619  0.128E-02  0.110E-02
  24.639  0.120E-02  0.103E-02
  24.659  0.112E-02  0.959E-03
  24.679  0.104E-02  0.894E-03
  24.699  0.971E-03  0.833E-03
  24.719  0.903E-03  0.775E-03
  24.739  0.839E-03  0.720E-03
  24.759  0.778E-03  0.667E-03
  24.779  0.720E-03  0.618E-03
  24.799  0.666E-03  0.571E-03
  24.819  0.615E-03  0.527E-03
  24.839  0.566E-03  0.486E-03
  24.859  0.521E-03  0.447E-03
  24.879  0.479E-03  0.411E-03
  24.899  0.439E-03  0.377E-03
  24.919  0.402E-03  0.345E-03
  24.939  0.368E-03  0.316E-03
  24.959  0.336E-03  0.288E-03
  24.979  0.306E-03  0.263E-03
  24.999  0.279E-03  0.239E-03
  25.019  0.253E-03  0.217E-03
  25.039  0.230E-03  0.197E-03
  25.059  0.208E-03  0.178E-03
  25.079  0.188E-03  0.161E-03
  25.099  0.170E-03  0.146E-03
  25.119  0.153E-03  0.131E-03
  25.139  0.138E-03  0.118E-03
  25.159  0.124E-03  0.106E-03
  25.179  0.111E-03  0.952E-04
  25.199  0.994E-04  0.852E-04
  25.219  0.889E-04  0.762E-04
  25.239  0.793E-04  0.680E-04
  25.259  0.707E-04  0.606E-04
  25.279  0.629E-04  0.539E-04
  25.299  0.558E-04  0.479E-04
  25.319  0.495E-04  0.424E-04
  25.339  0.438E-04  0.376E-04
  25.359  0.387E-04  0.332E-04
  25.379  0.342E-04  0.293E-04
  25.399  0.301E-04  0.258E-04
  25.419  0.265E-04  0.227E-04
  25.439  0.232E-04  0.199E-04
  25.459  0.203E-04  0.174E-04
  25.479  0.178E-04  0.153E-04
  25.499  0.156E-04  0.133E-04
  25.519  0.136E-04  0.116E-04
  25.539  0.118E-04  0.101E-04
  25.559  0.103E-04  0.879E-05
  25.579  0.890E-05  0.763E-05
  25.599  0.771E-05  0.661E-05
  25.619  0.666E-05  0.571E-05
  25.639  0.575E-05  0.493E-05
  25.659  0.496E-05  0.425E-05
  25.679  0.426E-05  0.366E-05
  25.699  0.366E-05  0.314E-05
  25.719  0.314E-05  0.269E-05
  25.739  0.269E-05  0.230E-05
  25.759  0.230E-05  0.197E-05
  25.779  0.196E-05  0.168E-05
  25.799  0.167E-05  0.143E-05
  25.819  0.142E-05  0.122E-05
  25.839  0.120E-05  0.103E-05
  25.859  0.102E-05  0.875E-06
  25.879  0.863E-06  0.740E-06
  25.899  0.729E-06  0.625E-06
  25.919  0.614E-06  0.527E-06
  25.939  0.517E-06  0.443E-06
  25.959  0.434E-06  0.372E-06
  25.979  0.364E-06  0.312E-06
  25.999  0.305E-06  0.261E-06
