# E (eV)  dos(E)    pdos(E)
  -3.856  0.734E-06  0.728E-06
  -3.836  0.116E-05  0.115E-05
  -3.816  0.181E-05  0.180E-05
  -3.796  0.280E-05  0.278E-05
  -3.776  0.429E-05  0.425E-05
  -3.756  0.650E-05  0.645E-05
  -3.736  0.976E-05  0.968E-05
  -3.716  0.145E-04  0.144E-04
  -3.696  0.213E-04  0.212E-04
  -3.676  0.311E-04  0.309E-04
  -3.656  0.449E-04  0.445E-04
  -3.636  0.641E-04  0.637E-04
  -3.616  0.908E-04  0.901E-04
  -3.596  0.127E-03  0.126E-03
  -3.576  0.177E-03  0.175E-03
  -3.556  0.243E-03  0.241E-03
  -3.536  0.331E-03  0.328E-03
  -3.516  0.446E-03  0.442E-03
  -3.496  0.596E-03  0.591E-03
  -3.476  0.789E-03  0.783E-03
  -3.456  0.103E-02  0.103E-02
  -3.436  0.134E-02  0.133E-02
  -3.416  0.173E-02  0.172E-02
  -3.396  0.221E-02  0.219E-02
  -3.376  0.279E-02  0.277E-02
  -3.356  0.350E-02  0.347E-02
  -3.336  0.435E-02  0.432E-02
  -3.316  0.536E-02  0.532E-02
  -3.296  0.655E-02  0.650E-02
  -3.276  0.793E-02  0.787E-02
  -3.256  0.953E-02  0.946E-02
  -3.236  0.114E-01  0.113E-01
  -3.216  0.134E-01  0.133E-01
  -3.196  0.157E-01  0.156E-01
  -3.176  0.183E-01  0.182E-01
  -3.156  0.212E-01  0.210E-01
  -3.136  0.243E-01  0.241E-01
  -3.116  0.276E-01  0.274E-01
  -3.096  0.312E-01  0.310E-01
  -3.076  0.351E-01  0.348E-01
  -3.056  0.391E-01  0.388E-01
  -3.036  0.434E-01  0.430E-01
  -3.016  0.478E-01  0.474E-01
  -2.996  0.523E-01  0.519E-01
  -2.976  0.570E-01  0.566E-01
  -2.956  0.618E-01  0.613E-01
  -2.936  0.666E-01  0.661E-01
  -2.916  0.714E-01  0.709E-01
  -2.896  0.762E-01  0.757E-01
  -2.876  0.810E-01  0.804E-01
  -2.856  0.858E-01  0.852E-01
  -2.836  0.905E-01  0.898E-01
  -2.816  0.951E-01  0.944E-01
  -2.796  0.996E-01  0.989E-01
  -2.776  0.104E+00  0.103E+00
  -2.756  0.108E+00  0.107E+00
  -2.736  0.112E+00  0.112E+00
  -2.716  0.116E+00  0.116E+00
  -2.696  0.120E+00  0.120E+00
  -2.676  0.124E+00  0.123E+00
  -2.656  0.128E+00  0.127E+00
  -2.636  0.131E+00  0.131E+00
  -2.616  0.135E+00  0.134E+00
  -2.596  0.138E+00  0.137E+00
  -2.576  0.142E+00  0.141E+00
  -2.556  0.145E+00  0.144E+00
  -2.536  0.148E+00  0.147E+00
  -2.516  0.151E+00  0.150E+00
  -2.496  0.154E+00  0.153E+00
  -2.476  0.157E+00  0.156E+00
  -2.456  0.160E+00  0.159E+00
  -2.436  0.162E+00  0.161E+00
  -2.416  0.165E+00  0.164E+00
  -2.396  0.168E+00  0.167E+00
  -2.376  0.170E+00  0.169E+00
  -2.356  0.173E+00  0.172E+00
  -2.336  0.175E+00  0.174E+00
  -2.316  0.178E+00  0.177E+00
  -2.296  0.180E+00  0.179E+00
  -2.276  0.183E+00  0.181E+00
  -2.256  0.185E+00  0.184E+00
  -2.236  0.187E+00  0.186E+00
  -2.216  0.190E+00  0.189E+00
  -2.196  0.192E+00  0.191E+00
  -2.176  0.195E+00  0.193E+00
  -2.156  0.197E+00  0.195E+00
  -2.136  0.199E+00  0.198E+00
  -2.116  0.201E+00  0.200E+00
  -2.096  0.204E+00  0.202E+00
  -2.076  0.206E+00  0.204E+00
  -2.056  0.208E+00  0.206E+00
  -2.036  0.210E+00  0.208E+00
  -2.016  0.212E+00  0.210E+00
  -1.996  0.214E+00  0.212E+00
  -1.976  0.216E+00  0.214E+00
  -1.956  0.218E+00  0.216E+00
  -1.936  0.220E+00  0.218E+00
  -1.916  0.222E+00  0.220E+00
  -1.896  0.223E+00  0.222E+00
  -1.876  0.225E+00  0.224E+00
  -1.856  0.227E+00  0.225E+00
  -1.836  0.229E+00  0.227E+00
  -1.816  0.231E+00  0.229E+00
  -1.796  0.233E+00  0.231E+00
  -1.776  0.235E+00  0.233E+00
  -1.756  0.237E+00  0.235E+00
  -1.736  0.239E+00  0.237E+00
  -1.716  0.241E+00  0.239E+00
  -1.696  0.243E+00  0.241E+00
  -1.676  0.245E+00  0.243E+00
  -1.656  0.247E+00  0.245E+00
  -1.636  0.249E+00  0.247E+00
  -1.616  0.251E+00  0.248E+00
  -1.596  0.253E+00  0.250E+00
  -1.576  0.254E+00  0.252E+00
  -1.556  0.256E+00  0.253E+00
  -1.536  0.258E+00  0.255E+00
  -1.516  0.259E+00  0.256E+00
  -1.496  0.260E+00  0.257E+00
  -1.476  0.262E+00  0.259E+00
  -1.456  0.263E+00  0.260E+00
  -1.436  0.265E+00  0.262E+00
  -1.416  0.266E+00  0.263E+00
  -1.396  0.268E+00  0.265E+00
  -1.376  0.269E+00  0.266E+00
  -1.356  0.271E+00  0.268E+00
  -1.336  0.273E+00  0.269E+00
  -1.316  0.275E+00  0.271E+00
  -1.296  0.277E+00  0.273E+00
  -1.276  0.279E+00  0.275E+00
  -1.256  0.281E+00  0.277E+00
  -1.236  0.283E+00  0.279E+00
  -1.216  0.285E+00  0.281E+00
  -1.196  0.287E+00  0.283E+00
  -1.176  0.289E+00  0.285E+00
  -1.156  0.291E+00  0.287E+00
  -1.136  0.293E+00  0.289E+00
  -1.116  0.295E+00  0.291E+00
  -1.096  0.296E+00  0.292E+00
  -1.076  0.298E+00  0.293E+00
  -1.056  0.299E+00  0.295E+00
  -1.036  0.300E+00  0.296E+00
  -1.016  0.301E+00  0.297E+00
  -0.996  0.302E+00  0.298E+00
  -0.976  0.303E+00  0.299E+00
  -0.956  0.304E+00  0.299E+00
  -0.936  0.305E+00  0.300E+00
  -0.916  0.306E+00  0.301E+00
  -0.896  0.307E+00  0.302E+00
  -0.876  0.308E+00  0.303E+00
  -0.856  0.310E+00  0.305E+00
  -0.836  0.311E+00  0.306E+00
  -0.816  0.313E+00  0.308E+00
  -0.796  0.315E+00  0.310E+00
  -0.776  0.317E+00  0.312E+00
  -0.756  0.320E+00  0.314E+00
  -0.736  0.322E+00  0.317E+00
  -0.716  0.325E+00  0.319E+00
  -0.696  0.328E+00  0.322E+00
  -0.676  0.331E+00  0.325E+00
  -0.656  0.333E+00  0.327E+00
  -0.636  0.336E+00  0.329E+00
  -0.616  0.338E+00  0.332E+00
  -0.596  0.340E+00  0.334E+00
  -0.576  0.342E+00  0.335E+00
  -0.556  0.344E+00  0.337E+00
  -0.536  0.345E+00  0.338E+00
  -0.516  0.346E+00  0.339E+00
  -0.496  0.347E+00  0.340E+00
  -0.476  0.347E+00  0.340E+00
  -0.456  0.347E+00  0.340E+00
  -0.436  0.348E+00  0.340E+00
  -0.416  0.348E+00  0.340E+00
  -0.396  0.348E+00  0.341E+00
  -0.376  0.348E+00  0.341E+00
  -0.356  0.349E+00  0.341E+00
  -0.336  0.349E+00  0.342E+00
  -0.316  0.350E+00  0.342E+00
  -0.296  0.352E+00  0.344E+00
  -0.276  0.353E+00  0.345E+00
  -0.256  0.356E+00  0.347E+00
  -0.236  0.358E+00  0.349E+00
  -0.216  0.361E+00  0.352E+00
  -0.196  0.364E+00  0.355E+00
  -0.176  0.368E+00  0.358E+00
  -0.156  0.371E+00  0.362E+00
  -0.136  0.375E+00  0.365E+00
  -0.116  0.379E+00  0.369E+00
  -0.096  0.383E+00  0.373E+00
  -0.076  0.387E+00  0.376E+00
  -0.056  0.391E+00  0.380E+00
  -0.036  0.394E+00  0.383E+00
  -0.016  0.397E+00  0.385E+00
   0.004  0.400E+00  0.388E+00
   0.024  0.402E+00  0.389E+00
   0.044  0.403E+00  0.391E+00
   0.064  0.404E+00  0.391E+00
   0.084  0.405E+00  0.392E+00
   0.104  0.406E+00  0.392E+00
   0.124  0.406E+00  0.392E+00
   0.144  0.406E+00  0.391E+00
   0.164  0.405E+00  0.390E+00
   0.184  0.405E+00  0.390E+00
   0.204  0.405E+00  0.389E+00
   0.224  0.405E+00  0.389E+00
   0.244  0.406E+00  0.389E+00
   0.264  0.407E+00  0.389E+00
   0.284  0.408E+00  0.390E+00
   0.304  0.410E+00  0.391E+00
   0.324  0.413E+00  0.393E+00
   0.344  0.416E+00  0.395E+00
   0.364  0.420E+00  0.398E+00
   0.384  0.425E+00  0.402E+00
   0.404  0.431E+00  0.407E+00
   0.424  0.437E+00  0.411E+00
   0.444  0.443E+00  0.417E+00
   0.464  0.450E+00  0.423E+00
   0.484  0.458E+00  0.429E+00
   0.504  0.466E+00  0.435E+00
   0.524  0.473E+00  0.441E+00
   0.544  0.481E+00  0.448E+00
   0.564  0.489E+00  0.454E+00
   0.584  0.496E+00  0.459E+00
   0.604  0.503E+00  0.465E+00
   0.624  0.509E+00  0.469E+00
   0.644  0.515E+00  0.474E+00
   0.664  0.520E+00  0.477E+00
   0.684  0.524E+00  0.480E+00
   0.704  0.527E+00  0.482E+00
   0.724  0.529E+00  0.483E+00
   0.744  0.531E+00  0.483E+00
   0.764  0.531E+00  0.483E+00
   0.784  0.531E+00  0.482E+00
   0.804  0.530E+00  0.481E+00
   0.824  0.529E+00  0.479E+00
   0.844  0.527E+00  0.477E+00
   0.864  0.525E+00  0.475E+00
   0.884  0.523E+00  0.472E+00
   0.904  0.521E+00  0.470E+00
   0.924  0.519E+00  0.469E+00
   0.944  0.517E+00  0.467E+00
   0.964  0.516E+00  0.466E+00
   0.984  0.515E+00  0.466E+00
   1.004  0.514E+00  0.466E+00
   1.024  0.514E+00  0.467E+00
   1.044  0.515E+00  0.468E+00
   1.064  0.516E+00  0.469E+00
   1.084  0.518E+00  0.471E+00
   1.104  0.519E+00  0.474E+00
   1.124  0.521E+00  0.476E+00
   1.144  0.523E+00  0.478E+00
   1.164  0.525E+00  0.481E+00
   1.184  0.526E+00  0.482E+00
   1.204  0.527E+00  0.484E+00
   1.224  0.528E+00  0.484E+00
   1.244  0.527E+00  0.484E+00
   1.264  0.526E+00  0.483E+00
   1.284  0.523E+00  0.481E+00
   1.304  0.519E+00  0.478E+00
   1.324  0.515E+00  0.473E+00
   1.344  0.509E+00  0.468E+00
   1.364  0.502E+00  0.462E+00
   1.384  0.494E+00  0.454E+00
   1.404  0.485E+00  0.446E+00
   1.424  0.475E+00  0.437E+00
   1.444  0.465E+00  0.427E+00
   1.464  0.455E+00  0.417E+00
   1.484  0.444E+00  0.407E+00
   1.504  0.434E+00  0.397E+00
   1.524  0.423E+00  0.387E+00
   1.544  0.414E+00  0.378E+00
   1.564  0.404E+00  0.369E+00
   1.584  0.396E+00  0.361E+00
   1.604  0.389E+00  0.354E+00
   1.624  0.383E+00  0.348E+00
   1.644  0.378E+00  0.342E+00
   1.664  0.374E+00  0.338E+00
   1.684  0.371E+00  0.335E+00
   1.704  0.369E+00  0.333E+00
   1.724  0.369E+00  0.332E+00
   1.744  0.370E+00  0.332E+00
   1.764  0.371E+00  0.332E+00
   1.784  0.373E+00  0.334E+00
   1.804  0.376E+00  0.335E+00
   1.824  0.378E+00  0.337E+00
   1.844  0.381E+00  0.339E+00
   1.864  0.383E+00  0.340E+00
   1.884  0.385E+00  0.341E+00
   1.904  0.387E+00  0.342E+00
   1.924  0.387E+00  0.341E+00
   1.944  0.386E+00  0.340E+00
   1.964  0.384E+00  0.337E+00
   1.984  0.381E+00  0.334E+00
   2.004  0.376E+00  0.329E+00
   2.024  0.370E+00  0.323E+00
   2.044  0.363E+00  0.316E+00
   2.064  0.354E+00  0.307E+00
   2.084  0.345E+00  0.298E+00
   2.104  0.334E+00  0.288E+00
   2.124  0.323E+00  0.277E+00
   2.144  0.311E+00  0.266E+00
   2.164  0.299E+00  0.255E+00
   2.184  0.287E+00  0.244E+00
   2.204  0.276E+00  0.233E+00
   2.224  0.265E+00  0.222E+00
   2.244  0.255E+00  0.212E+00
   2.264  0.246E+00  0.203E+00
   2.284  0.238E+00  0.195E+00
   2.304  0.231E+00  0.188E+00
   2.324  0.226E+00  0.182E+00
   2.344  0.222E+00  0.177E+00
   2.364  0.219E+00  0.174E+00
   2.384  0.218E+00  0.171E+00
   2.404  0.218E+00  0.170E+00
   2.424  0.219E+00  0.169E+00
   2.444  0.220E+00  0.170E+00
   2.464  0.223E+00  0.170E+00
   2.484  0.226E+00  0.172E+00
   2.504  0.229E+00  0.173E+00
   2.524  0.232E+00  0.174E+00
   2.544  0.235E+00  0.176E+00
   2.564  0.237E+00  0.176E+00
   2.584  0.238E+00  0.177E+00
   2.604  0.239E+00  0.177E+00
   2.624  0.238E+00  0.175E+00
   2.644  0.236E+00  0.173E+00
   2.664  0.233E+00  0.170E+00
   2.684  0.229E+00  0.167E+00
   2.704  0.223E+00  0.162E+00
   2.724  0.217E+00  0.156E+00
   2.744  0.209E+00  0.150E+00
   2.764  0.200E+00  0.143E+00
   2.784  0.191E+00  0.135E+00
   2.804  0.182E+00  0.127E+00
   2.824  0.172E+00  0.119E+00
   2.844  0.162E+00  0.111E+00
   2.864  0.152E+00  0.103E+00
   2.884  0.143E+00  0.956E-01
   2.904  0.134E+00  0.883E-01
   2.924  0.126E+00  0.815E-01
   2.944  0.119E+00  0.754E-01
   2.964  0.113E+00  0.700E-01
   2.984  0.108E+00  0.654E-01
   3.004  0.104E+00  0.617E-01
   3.024  0.102E+00  0.587E-01
   3.044  0.100E+00  0.567E-01
   3.064  0.100E+00  0.554E-01
   3.084  0.101E+00  0.550E-01
   3.104  0.103E+00  0.554E-01
   3.124  0.106E+00  0.565E-01
   3.144  0.110E+00  0.582E-01
   3.164  0.115E+00  0.604E-01
   3.184  0.121E+00  0.631E-01
   3.204  0.127E+00  0.662E-01
   3.224  0.133E+00  0.696E-01
   3.244  0.140E+00  0.730E-01
   3.264  0.146E+00  0.766E-01
   3.284  0.152E+00  0.801E-01
   3.304  0.158E+00  0.835E-01
   3.324  0.164E+00  0.867E-01
   3.344  0.169E+00  0.897E-01
   3.364  0.173E+00  0.925E-01
   3.384  0.177E+00  0.950E-01
   3.404  0.180E+00  0.974E-01
   3.424  0.183E+00  0.996E-01
   3.444  0.185E+00  0.102E+00
   3.464  0.187E+00  0.104E+00
   3.484  0.190E+00  0.106E+00
   3.504  0.192E+00  0.109E+00
   3.524  0.195E+00  0.113E+00
   3.544  0.199E+00  0.117E+00
   3.564  0.204E+00  0.122E+00
   3.584  0.210E+00  0.128E+00
   3.604  0.218E+00  0.136E+00
   3.624  0.228E+00  0.145E+00
   3.644  0.240E+00  0.156E+00
   3.664  0.254E+00  0.168E+00
   3.684  0.270E+00  0.182E+00
   3.704  0.288E+00  0.198E+00
   3.724  0.309E+00  0.215E+00
   3.744  0.331E+00  0.234E+00
   3.764  0.355E+00  0.254E+00
   3.784  0.381E+00  0.275E+00
   3.804  0.407E+00  0.297E+00
   3.824  0.435E+00  0.319E+00
   3.844  0.462E+00  0.342E+00
   3.864  0.490E+00  0.364E+00
   3.884  0.517E+00  0.386E+00
   3.904  0.542E+00  0.407E+00
   3.924  0.566E+00  0.426E+00
   3.944  0.588E+00  0.444E+00
   3.964  0.608E+00  0.460E+00
   3.984  0.626E+00  0.474E+00
   4.004  0.640E+00  0.486E+00
   4.024  0.652E+00  0.496E+00
   4.044  0.662E+00  0.503E+00
   4.064  0.668E+00  0.509E+00
   4.084  0.672E+00  0.512E+00
   4.104  0.674E+00  0.513E+00
   4.124  0.673E+00  0.513E+00
   4.144  0.671E+00  0.511E+00
   4.164  0.667E+00  0.507E+00
   4.184  0.662E+00  0.503E+00
   4.204  0.656E+00  0.498E+00
   4.224  0.650E+00  0.492E+00
   4.244  0.642E+00  0.486E+00
   4.264  0.634E+00  0.479E+00
   4.284  0.627E+00  0.473E+00
   4.304  0.619E+00  0.466E+00
   4.324  0.611E+00  0.459E+00
   4.344  0.603E+00  0.453E+00
   4.364  0.595E+00  0.446E+00
   4.384  0.588E+00  0.440E+00
   4.404  0.581E+00  0.434E+00
   4.424  0.575E+00  0.428E+00
   4.444  0.569E+00  0.423E+00
   4.464  0.563E+00  0.418E+00
   4.484  0.558E+00  0.413E+00
   4.504  0.554E+00  0.409E+00
   4.524  0.551E+00  0.406E+00
   4.544  0.548E+00  0.403E+00
   4.564  0.546E+00  0.401E+00
   4.584  0.545E+00  0.399E+00
   4.604  0.544E+00  0.398E+00
   4.624  0.543E+00  0.397E+00
   4.644  0.543E+00  0.397E+00
   4.664  0.543E+00  0.396E+00
   4.684  0.542E+00  0.395E+00
   4.704  0.541E+00  0.394E+00
   4.724  0.539E+00  0.393E+00
   4.744  0.537E+00  0.391E+00
   4.764  0.533E+00  0.389E+00
   4.784  0.529E+00  0.386E+00
   4.804  0.524E+00  0.382E+00
   4.824  0.517E+00  0.377E+00
   4.844  0.510E+00  0.372E+00
   4.864  0.501E+00  0.366E+00
   4.884  0.492E+00  0.360E+00
   4.904  0.483E+00  0.353E+00
   4.924  0.473E+00  0.346E+00
   4.944  0.463E+00  0.340E+00
   4.964  0.454E+00  0.334E+00
   4.984  0.446E+00  0.328E+00
   5.004  0.439E+00  0.323E+00
   5.024  0.432E+00  0.319E+00
   5.044  0.427E+00  0.315E+00
   5.064  0.424E+00  0.313E+00
   5.084  0.422E+00  0.312E+00
   5.104  0.422E+00  0.312E+00
   5.124  0.423E+00  0.314E+00
   5.144  0.425E+00  0.316E+00
   5.164  0.429E+00  0.319E+00
   5.184  0.433E+00  0.322E+00
   5.204  0.438E+00  0.326E+00
   5.224  0.443E+00  0.331E+00
   5.244  0.449E+00  0.335E+00
   5.264  0.453E+00  0.339E+00
   5.284  0.458E+00  0.342E+00
   5.304  0.461E+00  0.345E+00
   5.324  0.464E+00  0.347E+00
   5.344  0.465E+00  0.348E+00
   5.364  0.465E+00  0.348E+00
   5.384  0.463E+00  0.347E+00
   5.404  0.460E+00  0.345E+00
   5.424  0.456E+00  0.342E+00
   5.444  0.450E+00  0.338E+00
   5.464  0.444E+00  0.333E+00
   5.484  0.436E+00  0.328E+00
   5.504  0.429E+00  0.322E+00
   5.524  0.421E+00  0.316E+00
   5.544  0.412E+00  0.310E+00
   5.564  0.404E+00  0.305E+00
   5.584  0.397E+00  0.299E+00
   5.604  0.390E+00  0.294E+00
   5.624  0.384E+00  0.290E+00
   5.644  0.379E+00  0.286E+00
   5.664  0.375E+00  0.283E+00
   5.684  0.373E+00  0.281E+00
   5.704  0.371E+00  0.280E+00
   5.724  0.370E+00  0.279E+00
   5.744  0.371E+00  0.279E+00
   5.764  0.372E+00  0.280E+00
   5.784  0.374E+00  0.281E+00
   5.804  0.377E+00  0.283E+00
   5.824  0.380E+00  0.285E+00
   5.844  0.383E+00  0.287E+00
   5.864  0.385E+00  0.289E+00
   5.884  0.388E+00  0.290E+00
   5.904  0.391E+00  0.292E+00
   5.924  0.392E+00  0.293E+00
   5.944  0.394E+00  0.293E+00
   5.964  0.395E+00  0.293E+00
   5.984  0.395E+00  0.293E+00
   6.004  0.395E+00  0.292E+00
   6.024  0.394E+00  0.291E+00
   6.044  0.393E+00  0.290E+00
   6.064  0.393E+00  0.289E+00
   6.084  0.392E+00  0.288E+00
   6.104  0.392E+00  0.287E+00
   6.124  0.392E+00  0.287E+00
   6.144  0.392E+00  0.287E+00
   6.164  0.394E+00  0.287E+00
   6.184  0.397E+00  0.289E+00
   6.204  0.400E+00  0.291E+00
   6.224  0.405E+00  0.294E+00
   6.244  0.411E+00  0.298E+00
   6.264  0.417E+00  0.302E+00
   6.284  0.425E+00  0.308E+00
   6.304  0.433E+00  0.314E+00
   6.324  0.442E+00  0.320E+00
   6.344  0.452E+00  0.327E+00
   6.364  0.462E+00  0.334E+00
   6.384  0.472E+00  0.342E+00
   6.404  0.482E+00  0.349E+00
   6.424  0.491E+00  0.356E+00
   6.444  0.500E+00  0.363E+00
   6.464  0.508E+00  0.369E+00
   6.484  0.515E+00  0.375E+00
   6.504  0.521E+00  0.380E+00
   6.524  0.526E+00  0.384E+00
   6.544  0.530E+00  0.387E+00
   6.564  0.533E+00  0.390E+00
   6.584  0.535E+00  0.392E+00
   6.604  0.536E+00  0.393E+00
   6.624  0.536E+00  0.394E+00
   6.644  0.536E+00  0.394E+00
   6.664  0.535E+00  0.395E+00
   6.684  0.534E+00  0.395E+00
   6.704  0.533E+00  0.395E+00
   6.724  0.533E+00  0.395E+00
   6.744  0.533E+00  0.396E+00
   6.764  0.535E+00  0.397E+00
   6.784  0.537E+00  0.399E+00
   6.804  0.540E+00  0.401E+00
   6.824  0.545E+00  0.405E+00
   6.844  0.551E+00  0.409E+00
   6.864  0.559E+00  0.414E+00
   6.884  0.567E+00  0.420E+00
   6.904  0.577E+00  0.427E+00
   6.924  0.588E+00  0.433E+00
   6.944  0.600E+00  0.441E+00
   6.964  0.612E+00  0.448E+00
   6.984  0.624E+00  0.456E+00
   7.004  0.636E+00  0.463E+00
   7.024  0.648E+00  0.470E+00
   7.044  0.659E+00  0.476E+00
   7.064  0.669E+00  0.481E+00
   7.084  0.677E+00  0.486E+00
   7.104  0.685E+00  0.489E+00
   7.124  0.690E+00  0.491E+00
   7.144  0.694E+00  0.492E+00
   7.164  0.696E+00  0.492E+00
   7.184  0.696E+00  0.490E+00
   7.204  0.694E+00  0.487E+00
   7.224  0.691E+00  0.483E+00
   7.244  0.685E+00  0.478E+00
   7.264  0.678E+00  0.472E+00
   7.284  0.670E+00  0.465E+00
   7.304  0.661E+00  0.457E+00
   7.324  0.651E+00  0.449E+00
   7.344  0.640E+00  0.441E+00
   7.364  0.630E+00  0.432E+00
   7.384  0.619E+00  0.423E+00
   7.404  0.608E+00  0.415E+00
   7.424  0.598E+00  0.407E+00
   7.444  0.589E+00  0.399E+00
   7.464  0.580E+00  0.392E+00
   7.484  0.573E+00  0.386E+00
   7.504  0.566E+00  0.380E+00
   7.524  0.561E+00  0.374E+00
   7.544  0.557E+00  0.370E+00
   7.564  0.553E+00  0.366E+00
   7.584  0.552E+00  0.362E+00
   7.604  0.551E+00  0.359E+00
   7.624  0.551E+00  0.357E+00
   7.644  0.552E+00  0.355E+00
   7.664  0.554E+00  0.354E+00
   7.684  0.557E+00  0.353E+00
   7.704  0.560E+00  0.353E+00
   7.724  0.564E+00  0.353E+00
   7.744  0.568E+00  0.353E+00
   7.764  0.573E+00  0.353E+00
   7.784  0.577E+00  0.353E+00
   7.804  0.582E+00  0.353E+00
   7.824  0.586E+00  0.354E+00
   7.844  0.590E+00  0.354E+00
   7.864  0.593E+00  0.353E+00
   7.884  0.596E+00  0.353E+00
   7.904  0.598E+00  0.352E+00
   7.924  0.599E+00  0.351E+00
   7.944  0.600E+00  0.350E+00
   7.964  0.600E+00  0.348E+00
   7.984  0.599E+00  0.346E+00
   8.004  0.597E+00  0.343E+00
   8.024  0.594E+00  0.340E+00
   8.044  0.591E+00  0.337E+00
   8.064  0.586E+00  0.333E+00
   8.084  0.582E+00  0.329E+00
   8.104  0.576E+00  0.325E+00
   8.124  0.570E+00  0.321E+00
   8.144  0.563E+00  0.316E+00
   8.164  0.556E+00  0.311E+00
   8.184  0.549E+00  0.306E+00
   8.204  0.541E+00  0.301E+00
   8.224  0.533E+00  0.295E+00
   8.244  0.525E+00  0.290E+00
   8.264  0.518E+00  0.285E+00
   8.284  0.510E+00  0.279E+00
   8.304  0.503E+00  0.274E+00
   8.324  0.497E+00  0.269E+00
   8.344  0.491E+00  0.265E+00
   8.364  0.487E+00  0.261E+00
   8.384  0.483E+00  0.257E+00
   8.404  0.481E+00  0.254E+00
   8.424  0.479E+00  0.252E+00
   8.444  0.479E+00  0.250E+00
   8.464  0.480E+00  0.248E+00
   8.484  0.482E+00  0.248E+00
   8.504  0.485E+00  0.248E+00
   8.524  0.489E+00  0.248E+00
   8.544  0.493E+00  0.249E+00
   8.564  0.499E+00  0.251E+00
   8.584  0.504E+00  0.253E+00
   8.604  0.510E+00  0.255E+00
   8.624  0.516E+00  0.257E+00
   8.644  0.522E+00  0.259E+00
   8.664  0.527E+00  0.262E+00
   8.684  0.531E+00  0.264E+00
   8.704  0.535E+00  0.266E+00
   8.724  0.538E+00  0.267E+00
   8.744  0.540E+00  0.269E+00
   8.764  0.541E+00  0.270E+00
   8.784  0.541E+00  0.270E+00
   8.804  0.541E+00  0.270E+00
   8.824  0.539E+00  0.270E+00
   8.844  0.537E+00  0.270E+00
   8.864  0.534E+00  0.270E+00
   8.884  0.530E+00  0.269E+00
   8.904  0.526E+00  0.268E+00
   8.924  0.522E+00  0.267E+00
   8.944  0.518E+00  0.267E+00
   8.964  0.514E+00  0.266E+00
   8.984  0.510E+00  0.266E+00
   9.004  0.506E+00  0.265E+00
   9.024  0.504E+00  0.265E+00
   9.044  0.501E+00  0.266E+00
   9.064  0.500E+00  0.267E+00
   9.084  0.499E+00  0.268E+00
   9.104  0.499E+00  0.269E+00
   9.124  0.500E+00  0.271E+00
   9.144  0.502E+00  0.274E+00
   9.164  0.505E+00  0.277E+00
   9.184  0.509E+00  0.280E+00
   9.204  0.513E+00  0.283E+00
   9.224  0.519E+00  0.287E+00
   9.244  0.525E+00  0.292E+00
   9.264  0.532E+00  0.296E+00
   9.284  0.539E+00  0.301E+00
   9.304  0.547E+00  0.306E+00
   9.324  0.555E+00  0.312E+00
   9.344  0.564E+00  0.317E+00
   9.364  0.572E+00  0.322E+00
   9.384  0.580E+00  0.327E+00
   9.404  0.588E+00  0.332E+00
   9.424  0.595E+00  0.337E+00
   9.444  0.602E+00  0.342E+00
   9.464  0.608E+00  0.346E+00
   9.484  0.613E+00  0.349E+00
   9.504  0.617E+00  0.352E+00
   9.524  0.620E+00  0.355E+00
   9.544  0.622E+00  0.357E+00
   9.564  0.623E+00  0.358E+00
   9.584  0.623E+00  0.359E+00
   9.604  0.622E+00  0.359E+00
   9.624  0.620E+00  0.359E+00
   9.644  0.618E+00  0.359E+00
   9.664  0.616E+00  0.358E+00
   9.684  0.613E+00  0.357E+00
   9.704  0.610E+00  0.356E+00
   9.724  0.607E+00  0.355E+00
   9.744  0.604E+00  0.354E+00
   9.764  0.602E+00  0.353E+00
   9.784  0.600E+00  0.353E+00
   9.804  0.598E+00  0.352E+00
   9.824  0.597E+00  0.352E+00
   9.844  0.597E+00  0.352E+00
   9.864  0.597E+00  0.353E+00
   9.884  0.599E+00  0.354E+00
   9.904  0.600E+00  0.355E+00
   9.924  0.603E+00  0.357E+00
   9.944  0.606E+00  0.360E+00
   9.964  0.610E+00  0.362E+00
   9.984  0.615E+00  0.365E+00
  10.004  0.620E+00  0.369E+00
  10.024  0.625E+00  0.373E+00
  10.044  0.631E+00  0.377E+00
  10.064  0.637E+00  0.381E+00
  10.084  0.643E+00  0.385E+00
  10.104  0.649E+00  0.389E+00
  10.124  0.655E+00  0.393E+00
  10.144  0.660E+00  0.397E+00
  10.164  0.665E+00  0.400E+00
  10.184  0.669E+00  0.403E+00
  10.204  0.672E+00  0.406E+00
  10.224  0.674E+00  0.408E+00
  10.244  0.675E+00  0.410E+00
  10.264  0.675E+00  0.410E+00
  10.284  0.674E+00  0.411E+00
  10.304  0.671E+00  0.410E+00
  10.324  0.668E+00  0.409E+00
  10.344  0.664E+00  0.408E+00
  10.364  0.659E+00  0.406E+00
  10.384  0.653E+00  0.403E+00
  10.404  0.647E+00  0.401E+00
  10.424  0.641E+00  0.398E+00
  10.444  0.634E+00  0.395E+00
  10.464  0.628E+00  0.393E+00
  10.484  0.622E+00  0.391E+00
  10.504  0.617E+00  0.389E+00
  10.524  0.613E+00  0.387E+00
  10.544  0.609E+00  0.386E+00
  10.564  0.606E+00  0.386E+00
  10.584  0.605E+00  0.387E+00
  10.604  0.604E+00  0.388E+00
  10.624  0.605E+00  0.389E+00
  10.644  0.606E+00  0.392E+00
  10.664  0.609E+00  0.395E+00
  10.684  0.612E+00  0.399E+00
  10.704  0.617E+00  0.403E+00
  10.724  0.623E+00  0.408E+00
  10.744  0.629E+00  0.413E+00
  10.764  0.636E+00  0.419E+00
  10.784  0.643E+00  0.425E+00
  10.804  0.651E+00  0.431E+00
  10.824  0.659E+00  0.437E+00
  10.844  0.667E+00  0.443E+00
  10.864  0.675E+00  0.449E+00
  10.884  0.682E+00  0.454E+00
  10.904  0.689E+00  0.460E+00
  10.924  0.696E+00  0.465E+00
  10.944  0.702E+00  0.469E+00
  10.964  0.707E+00  0.473E+00
  10.984  0.711E+00  0.476E+00
  11.004  0.714E+00  0.478E+00
  11.024  0.716E+00  0.479E+00
  11.044  0.716E+00  0.480E+00
  11.064  0.715E+00  0.479E+00
  11.084  0.713E+00  0.478E+00
  11.104  0.710E+00  0.476E+00
  11.124  0.706E+00  0.473E+00
  11.144  0.700E+00  0.469E+00
  11.164  0.693E+00  0.464E+00
  11.184  0.685E+00  0.459E+00
  11.204  0.676E+00  0.453E+00
  11.224  0.666E+00  0.446E+00
  11.244  0.655E+00  0.439E+00
  11.264  0.644E+00  0.432E+00
  11.284  0.633E+00  0.424E+00
  11.304  0.621E+00  0.417E+00
  11.324  0.609E+00  0.409E+00
  11.344  0.597E+00  0.402E+00
  11.364  0.585E+00  0.395E+00
  11.384  0.574E+00  0.388E+00
  11.404  0.564E+00  0.382E+00
  11.424  0.554E+00  0.377E+00
  11.444  0.546E+00  0.372E+00
  11.464  0.538E+00  0.368E+00
  11.484  0.532E+00  0.365E+00
  11.504  0.527E+00  0.363E+00
  11.524  0.524E+00  0.362E+00
  11.544  0.523E+00  0.362E+00
  11.564  0.523E+00  0.363E+00
  11.584  0.525E+00  0.365E+00
  11.604  0.529E+00  0.369E+00
  11.624  0.535E+00  0.374E+00
  11.644  0.543E+00  0.379E+00
  11.664  0.552E+00  0.386E+00
  11.684  0.564E+00  0.394E+00
  11.704  0.577E+00  0.403E+00
  11.724  0.591E+00  0.413E+00
  11.744  0.606E+00  0.423E+00
  11.764  0.622E+00  0.433E+00
  11.784  0.638E+00  0.444E+00
  11.804  0.655E+00  0.454E+00
  11.824  0.671E+00  0.465E+00
  11.844  0.687E+00  0.475E+00
  11.864  0.701E+00  0.484E+00
  11.884  0.714E+00  0.492E+00
  11.904  0.726E+00  0.499E+00
  11.924  0.735E+00  0.504E+00
  11.944  0.742E+00  0.508E+00
  11.964  0.747E+00  0.511E+00
  11.984  0.750E+00  0.512E+00
  12.004  0.751E+00  0.512E+00
  12.024  0.749E+00  0.510E+00
  12.044  0.745E+00  0.507E+00
  12.064  0.740E+00  0.503E+00
  12.084  0.733E+00  0.498E+00
  12.104  0.726E+00  0.493E+00
  12.124  0.718E+00  0.487E+00
  12.144  0.710E+00  0.481E+00
  12.164  0.702E+00  0.476E+00
  12.184  0.695E+00  0.471E+00
  12.204  0.689E+00  0.467E+00
  12.224  0.685E+00  0.464E+00
  12.244  0.683E+00  0.462E+00
  12.264  0.683E+00  0.462E+00
  12.284  0.685E+00  0.463E+00
  12.304  0.689E+00  0.466E+00
  12.324  0.696E+00  0.471E+00
  12.344  0.705E+00  0.477E+00
  12.364  0.716E+00  0.484E+00
  12.384  0.730E+00  0.493E+00
  12.404  0.746E+00  0.504E+00
  12.424  0.763E+00  0.516E+00
  12.444  0.782E+00  0.529E+00
  12.464  0.803E+00  0.543E+00
  12.484  0.824E+00  0.557E+00
  12.504  0.846E+00  0.572E+00
  12.524  0.868E+00  0.587E+00
  12.544  0.889E+00  0.602E+00
  12.564  0.910E+00  0.617E+00
  12.584  0.931E+00  0.632E+00
  12.604  0.949E+00  0.645E+00
  12.624  0.967E+00  0.657E+00
  12.644  0.982E+00  0.668E+00
  12.664  0.994E+00  0.678E+00
  12.684  0.100E+01  0.685E+00
  12.704  0.101E+01  0.691E+00
  12.724  0.102E+01  0.695E+00
  12.744  0.102E+01  0.697E+00
  12.764  0.102E+01  0.698E+00
  12.784  0.101E+01  0.696E+00
  12.804  0.101E+01  0.692E+00
  12.824  0.999E+00  0.686E+00
  12.844  0.988E+00  0.679E+00
  12.864  0.975E+00  0.671E+00
  12.884  0.961E+00  0.661E+00
  12.904  0.945E+00  0.650E+00
  12.924  0.928E+00  0.639E+00
  12.944  0.911E+00  0.627E+00
  12.964  0.894E+00  0.615E+00
  12.984  0.877E+00  0.603E+00
  13.004  0.860E+00  0.591E+00
  13.024  0.844E+00  0.580E+00
  13.044  0.830E+00  0.570E+00
  13.064  0.817E+00  0.561E+00
  13.084  0.805E+00  0.553E+00
  13.104  0.796E+00  0.546E+00
  13.124  0.788E+00  0.540E+00
  13.144  0.782E+00  0.536E+00
  13.164  0.778E+00  0.533E+00
  13.184  0.776E+00  0.531E+00
  13.204  0.775E+00  0.531E+00
  13.224  0.776E+00  0.531E+00
  13.244  0.777E+00  0.533E+00
  13.264  0.780E+00  0.535E+00
  13.284  0.783E+00  0.537E+00
  13.304  0.786E+00  0.540E+00
  13.324  0.789E+00  0.543E+00
  13.344  0.792E+00  0.545E+00
  13.364  0.793E+00  0.547E+00
  13.384  0.793E+00  0.548E+00
  13.404  0.792E+00  0.547E+00
  13.424  0.789E+00  0.546E+00
  13.444  0.784E+00  0.543E+00
  13.464  0.777E+00  0.539E+00
  13.484  0.768E+00  0.534E+00
  13.504  0.757E+00  0.527E+00
  13.524  0.744E+00  0.519E+00
  13.544  0.730E+00  0.509E+00
  13.564  0.714E+00  0.499E+00
  13.584  0.696E+00  0.487E+00
  13.604  0.678E+00  0.475E+00
  13.624  0.659E+00  0.463E+00
  13.644  0.639E+00  0.450E+00
  13.664  0.620E+00  0.436E+00
  13.684  0.600E+00  0.423E+00
  13.704  0.581E+00  0.411E+00
  13.724  0.562E+00  0.398E+00
  13.744  0.544E+00  0.386E+00
  13.764  0.527E+00  0.375E+00
  13.784  0.511E+00  0.365E+00
  13.804  0.496E+00  0.355E+00
  13.824  0.483E+00  0.346E+00
  13.844  0.470E+00  0.338E+00
  13.864  0.459E+00  0.331E+00
  13.884  0.449E+00  0.325E+00
  13.904  0.439E+00  0.319E+00
  13.924  0.431E+00  0.314E+00
  13.944  0.424E+00  0.309E+00
  13.964  0.417E+00  0.305E+00
  13.984  0.411E+00  0.302E+00
  14.004  0.406E+00  0.299E+00
  14.024  0.402E+00  0.297E+00
  14.044  0.398E+00  0.294E+00
  14.064  0.395E+00  0.293E+00
  14.084  0.392E+00  0.291E+00
  14.104  0.390E+00  0.290E+00
  14.124  0.389E+00  0.290E+00
  14.144  0.387E+00  0.289E+00
  14.164  0.387E+00  0.290E+00
  14.184  0.387E+00  0.290E+00
  14.204  0.387E+00  0.291E+00
  14.224  0.387E+00  0.291E+00
  14.244  0.388E+00  0.292E+00
  14.264  0.389E+00  0.293E+00
  14.284  0.389E+00  0.294E+00
  14.304  0.389E+00  0.295E+00
  14.324  0.389E+00  0.295E+00
  14.344  0.389E+00  0.295E+00
  14.364  0.387E+00  0.295E+00
  14.384  0.385E+00  0.294E+00
  14.404  0.383E+00  0.292E+00
  14.424  0.379E+00  0.290E+00
  14.444  0.375E+00  0.287E+00
  14.464  0.370E+00  0.284E+00
  14.484  0.365E+00  0.280E+00
  14.504  0.359E+00  0.276E+00
  14.524  0.353E+00  0.272E+00
  14.544  0.346E+00  0.268E+00
  14.564  0.340E+00  0.263E+00
  14.584  0.334E+00  0.259E+00
  14.604  0.328E+00  0.255E+00
  14.624  0.322E+00  0.251E+00
  14.644  0.317E+00  0.247E+00
  14.664  0.313E+00  0.244E+00
  14.684  0.309E+00  0.242E+00
  14.704  0.306E+00  0.239E+00
  14.724  0.303E+00  0.238E+00
  14.744  0.301E+00  0.236E+00
  14.764  0.299E+00  0.235E+00
  14.784  0.298E+00  0.234E+00
  14.804  0.297E+00  0.234E+00
  14.824  0.297E+00  0.233E+00
  14.844  0.296E+00  0.233E+00
  14.864  0.296E+00  0.233E+00
  14.884  0.296E+00  0.233E+00
  14.904  0.296E+00  0.233E+00
  14.924  0.295E+00  0.233E+00
  14.944  0.295E+00  0.233E+00
  14.964  0.295E+00  0.233E+00
  14.984  0.295E+00  0.233E+00
  15.004  0.295E+00  0.232E+00
  15.024  0.294E+00  0.232E+00
  15.044  0.294E+00  0.232E+00
  15.064  0.294E+00  0.232E+00
  15.084  0.294E+00  0.232E+00
  15.104  0.294E+00  0.232E+00
  15.124  0.294E+00  0.232E+00
  15.144  0.295E+00  0.232E+00
  15.164  0.295E+00  0.233E+00
  15.184  0.296E+00  0.233E+00
  15.204  0.296E+00  0.234E+00
  15.224  0.297E+00  0.234E+00
  15.244  0.298E+00  0.235E+00
  15.264  0.299E+00  0.236E+00
  15.284  0.301E+00  0.237E+00
  15.304  0.302E+00  0.238E+00
  15.324  0.304E+00  0.239E+00
  15.344  0.307E+00  0.241E+00
  15.364  0.309E+00  0.243E+00
  15.384  0.312E+00  0.245E+00
  15.404  0.315E+00  0.247E+00
  15.424  0.318E+00  0.249E+00
  15.444  0.322E+00  0.252E+00
  15.464  0.326E+00  0.254E+00
  15.484  0.330E+00  0.257E+00
  15.504  0.334E+00  0.260E+00
  15.524  0.338E+00  0.263E+00
  15.544  0.342E+00  0.265E+00
  15.564  0.346E+00  0.268E+00
  15.584  0.349E+00  0.270E+00
  15.604  0.353E+00  0.273E+00
  15.624  0.356E+00  0.275E+00
  15.644  0.359E+00  0.277E+00
  15.664  0.362E+00  0.278E+00
  15.684  0.364E+00  0.280E+00
  15.704  0.366E+00  0.281E+00
  15.724  0.368E+00  0.283E+00
  15.744  0.370E+00  0.284E+00
  15.764  0.372E+00  0.285E+00
  15.784  0.374E+00  0.286E+00
  15.804  0.376E+00  0.288E+00
  15.824  0.379E+00  0.289E+00
  15.844  0.381E+00  0.291E+00
  15.864  0.384E+00  0.293E+00
  15.884  0.388E+00  0.295E+00
  15.904  0.391E+00  0.298E+00
  15.924  0.396E+00  0.300E+00
  15.944  0.400E+00  0.304E+00
  15.964  0.406E+00  0.307E+00
  15.984  0.411E+00  0.311E+00
  16.004  0.417E+00  0.315E+00
  16.024  0.423E+00  0.320E+00
  16.044  0.430E+00  0.324E+00
  16.064  0.436E+00  0.329E+00
  16.084  0.443E+00  0.334E+00
  16.104  0.450E+00  0.338E+00
  16.124  0.456E+00  0.343E+00
  16.144  0.462E+00  0.347E+00
  16.164  0.467E+00  0.351E+00
  16.184  0.472E+00  0.355E+00
  16.204  0.476E+00  0.358E+00
  16.224  0.479E+00  0.360E+00
  16.244  0.481E+00  0.362E+00
  16.264  0.481E+00  0.362E+00
  16.284  0.481E+00  0.362E+00
  16.304  0.479E+00  0.361E+00
  16.324  0.477E+00  0.359E+00
  16.344  0.473E+00  0.356E+00
  16.364  0.467E+00  0.352E+00
  16.384  0.461E+00  0.347E+00
  16.404  0.453E+00  0.341E+00
  16.424  0.445E+00  0.334E+00
  16.444  0.435E+00  0.327E+00
  16.464  0.425E+00  0.319E+00
  16.484  0.414E+00  0.311E+00
  16.504  0.403E+00  0.302E+00
  16.524  0.392E+00  0.293E+00
  16.544  0.380E+00  0.284E+00
  16.564  0.369E+00  0.275E+00
  16.584  0.358E+00  0.266E+00
  16.604  0.348E+00  0.258E+00
  16.624  0.339E+00  0.250E+00
  16.644  0.331E+00  0.243E+00
  16.664  0.323E+00  0.236E+00
  16.684  0.317E+00  0.230E+00
  16.704  0.312E+00  0.226E+00
  16.724  0.308E+00  0.222E+00
  16.744  0.306E+00  0.219E+00
  16.764  0.304E+00  0.217E+00
  16.784  0.304E+00  0.215E+00
  16.804  0.305E+00  0.215E+00
  16.824  0.306E+00  0.215E+00
  16.844  0.309E+00  0.216E+00
  16.864  0.312E+00  0.217E+00
  16.884  0.315E+00  0.219E+00
  16.904  0.319E+00  0.221E+00
  16.924  0.322E+00  0.223E+00
  16.944  0.326E+00  0.225E+00
  16.964  0.329E+00  0.227E+00
  16.984  0.332E+00  0.229E+00
  17.004  0.334E+00  0.230E+00
  17.024  0.336E+00  0.231E+00
  17.044  0.337E+00  0.231E+00
  17.064  0.337E+00  0.231E+00
  17.084  0.336E+00  0.231E+00
  17.104  0.334E+00  0.230E+00
  17.124  0.331E+00  0.228E+00
  17.144  0.328E+00  0.226E+00
  17.164  0.324E+00  0.224E+00
  17.184  0.320E+00  0.221E+00
  17.204  0.315E+00  0.218E+00
  17.224  0.311E+00  0.215E+00
  17.244  0.306E+00  0.211E+00
  17.264  0.301E+00  0.208E+00
  17.284  0.296E+00  0.205E+00
  17.304  0.292E+00  0.202E+00
  17.324  0.288E+00  0.200E+00
  17.344  0.284E+00  0.197E+00
  17.364  0.282E+00  0.195E+00
  17.384  0.279E+00  0.194E+00
  17.404  0.277E+00  0.192E+00
  17.424  0.275E+00  0.191E+00
  17.444  0.274E+00  0.190E+00
  17.464  0.273E+00  0.189E+00
  17.484  0.272E+00  0.189E+00
  17.504  0.272E+00  0.188E+00
  17.524  0.271E+00  0.187E+00
  17.544  0.270E+00  0.187E+00
  17.564  0.270E+00  0.186E+00
  17.584  0.269E+00  0.185E+00
  17.604  0.268E+00  0.183E+00
  17.624  0.266E+00  0.182E+00
  17.644  0.265E+00  0.180E+00
  17.664  0.263E+00  0.179E+00
  17.684  0.261E+00  0.177E+00
  17.704  0.259E+00  0.175E+00
  17.724  0.257E+00  0.173E+00
  17.744  0.255E+00  0.171E+00
  17.764  0.253E+00  0.168E+00
  17.784  0.250E+00  0.166E+00
  17.804  0.248E+00  0.164E+00
  17.824  0.246E+00  0.162E+00
  17.844  0.244E+00  0.160E+00
  17.864  0.242E+00  0.158E+00
  17.884  0.240E+00  0.156E+00
  17.904  0.238E+00  0.154E+00
  17.924  0.236E+00  0.153E+00
  17.944  0.235E+00  0.151E+00
  17.964  0.233E+00  0.150E+00
  17.984  0.232E+00  0.148E+00
  18.004  0.231E+00  0.147E+00
  18.024  0.230E+00  0.146E+00
  18.044  0.230E+00  0.145E+00
  18.064  0.229E+00  0.145E+00
  18.084  0.229E+00  0.144E+00
  18.104  0.229E+00  0.144E+00
  18.124  0.229E+00  0.143E+00
  18.144  0.230E+00  0.143E+00
  18.164  0.230E+00  0.143E+00
  18.184  0.230E+00  0.143E+00
  18.204  0.231E+00  0.142E+00
  18.224  0.230E+00  0.142E+00
  18.244  0.230E+00  0.141E+00
  18.264  0.229E+00  0.140E+00
  18.284  0.228E+00  0.139E+00
  18.304  0.226E+00  0.137E+00
  18.324  0.223E+00  0.135E+00
  18.344  0.220E+00  0.132E+00
  18.364  0.216E+00  0.129E+00
  18.384  0.211E+00  0.126E+00
  18.404  0.206E+00  0.122E+00
  18.424  0.201E+00  0.118E+00
  18.444  0.195E+00  0.114E+00
  18.464  0.189E+00  0.110E+00
  18.484  0.183E+00  0.106E+00
  18.504  0.178E+00  0.102E+00
  18.524  0.173E+00  0.985E-01
  18.544  0.169E+00  0.952E-01
  18.564  0.165E+00  0.924E-01
  18.584  0.163E+00  0.901E-01
  18.604  0.161E+00  0.884E-01
  18.624  0.161E+00  0.872E-01
  18.644  0.161E+00  0.867E-01
  18.664  0.163E+00  0.867E-01
  18.684  0.165E+00  0.872E-01
  18.704  0.168E+00  0.881E-01
  18.724  0.172E+00  0.894E-01
  18.744  0.176E+00  0.910E-01
  18.764  0.180E+00  0.927E-01
  18.784  0.185E+00  0.945E-01
  18.804  0.189E+00  0.962E-01
  18.824  0.192E+00  0.978E-01
  18.844  0.196E+00  0.991E-01
  18.864  0.198E+00  0.100E+00
  18.884  0.199E+00  0.101E+00
  18.904  0.200E+00  0.101E+00
  18.924  0.199E+00  0.100E+00
  18.944  0.198E+00  0.994E-01
  18.964  0.195E+00  0.980E-01
  18.984  0.192E+00  0.961E-01
  19.004  0.187E+00  0.937E-01
  19.024  0.181E+00  0.908E-01
  19.044  0.175E+00  0.875E-01
  19.064  0.168E+00  0.839E-01
  19.084  0.160E+00  0.800E-01
  19.104  0.152E+00  0.758E-01
  19.124  0.143E+00  0.716E-01
  19.144  0.135E+00  0.672E-01
  19.164  0.126E+00  0.628E-01
  19.184  0.118E+00  0.585E-01
  19.204  0.110E+00  0.544E-01
  19.224  0.102E+00  0.504E-01
  19.244  0.950E-01  0.467E-01
  19.264  0.886E-01  0.433E-01
  19.284  0.830E-01  0.403E-01
  19.304  0.783E-01  0.376E-01
  19.324  0.745E-01  0.354E-01
  19.344  0.716E-01  0.335E-01
  19.364  0.698E-01  0.322E-01
  19.384  0.689E-01  0.313E-01
  19.404  0.691E-01  0.308E-01
  19.424  0.703E-01  0.308E-01
  19.444  0.724E-01  0.311E-01
  19.464  0.754E-01  0.319E-01
  19.484  0.792E-01  0.330E-01
  19.504  0.837E-01  0.345E-01
  19.524  0.888E-01  0.362E-01
  19.544  0.944E-01  0.381E-01
  19.564  0.100E+00  0.402E-01
  19.584  0.106E+00  0.424E-01
  19.604  0.112E+00  0.446E-01
  19.624  0.118E+00  0.468E-01
  19.644  0.124E+00  0.489E-01
  19.664  0.129E+00  0.509E-01
  19.684  0.134E+00  0.527E-01
  19.704  0.138E+00  0.542E-01
  19.724  0.141E+00  0.555E-01
  19.744  0.143E+00  0.565E-01
  19.764  0.145E+00  0.572E-01
  19.784  0.145E+00  0.576E-01
  19.804  0.145E+00  0.577E-01
  19.824  0.144E+00  0.575E-01
  19.844  0.142E+00  0.570E-01
  19.864  0.140E+00  0.563E-01
  19.884  0.137E+00  0.554E-01
  19.904  0.133E+00  0.544E-01
  19.924  0.130E+00  0.531E-01
  19.944  0.126E+00  0.518E-01
  19.964  0.121E+00  0.504E-01
  19.984  0.117E+00  0.489E-01
  20.004  0.113E+00  0.475E-01
  20.024  0.109E+00  0.460E-01
  20.044  0.105E+00  0.445E-01
  20.064  0.101E+00  0.431E-01
  20.084  0.972E-01  0.417E-01
  20.104  0.938E-01  0.404E-01
  20.124  0.907E-01  0.392E-01
  20.144  0.878E-01  0.380E-01
  20.164  0.853E-01  0.370E-01
  20.184  0.832E-01  0.360E-01
  20.204  0.813E-01  0.352E-01
  20.224  0.799E-01  0.344E-01
  20.244  0.787E-01  0.338E-01
  20.264  0.779E-01  0.333E-01
  20.284  0.775E-01  0.329E-01
  20.304  0.773E-01  0.326E-01
  20.324  0.773E-01  0.324E-01
  20.344  0.776E-01  0.322E-01
  20.364  0.780E-01  0.322E-01
  20.384  0.785E-01  0.321E-01
  20.404  0.790E-01  0.321E-01
  20.424  0.795E-01  0.321E-01
  20.444  0.799E-01  0.321E-01
  20.464  0.801E-01  0.321E-01
  20.484  0.801E-01  0.320E-01
  20.504  0.799E-01  0.319E-01
  20.524  0.795E-01  0.318E-01
  20.544  0.788E-01  0.316E-01
  20.564  0.779E-01  0.314E-01
  20.584  0.767E-01  0.312E-01
  20.604  0.755E-01  0.310E-01
  20.624  0.741E-01  0.309E-01
  20.644  0.727E-01  0.307E-01
  20.664  0.713E-01  0.307E-01
  20.684  0.700E-01  0.307E-01
  20.704  0.689E-01  0.309E-01
  20.724  0.680E-01  0.311E-01
  20.744  0.673E-01  0.315E-01
  20.764  0.670E-01  0.321E-01
  20.784  0.670E-01  0.327E-01
  20.804  0.673E-01  0.336E-01
  20.824  0.680E-01  0.345E-01
  20.844  0.690E-01  0.355E-01
  20.864  0.703E-01  0.367E-01
  20.884  0.718E-01  0.378E-01
  20.904  0.736E-01  0.391E-01
  20.924  0.755E-01  0.403E-01
  20.944  0.774E-01  0.415E-01
  20.964  0.793E-01  0.426E-01
  20.984  0.812E-01  0.437E-01
  21.004  0.828E-01  0.446E-01
  21.024  0.842E-01  0.453E-01
  21.044  0.853E-01  0.459E-01
  21.064  0.860E-01  0.463E-01
  21.084  0.863E-01  0.464E-01
  21.104  0.862E-01  0.463E-01
  21.124  0.856E-01  0.459E-01
  21.144  0.845E-01  0.454E-01
  21.164  0.830E-01  0.446E-01
  21.184  0.811E-01  0.436E-01
  21.204  0.787E-01  0.424E-01
  21.224  0.761E-01  0.410E-01
  21.244  0.731E-01  0.396E-01
  21.264  0.699E-01  0.380E-01
  21.284  0.666E-01  0.364E-01
  21.304  0.633E-01  0.347E-01
  21.324  0.599E-01  0.331E-01
  21.344  0.566E-01  0.315E-01
  21.364  0.534E-01  0.300E-01
  21.384  0.503E-01  0.286E-01
  21.404  0.476E-01  0.273E-01
  21.424  0.450E-01  0.262E-01
  21.444  0.428E-01  0.252E-01
  21.464  0.410E-01  0.245E-01
  21.484  0.395E-01  0.239E-01
  21.504  0.384E-01  0.235E-01
  21.524  0.376E-01  0.234E-01
  21.544  0.373E-01  0.235E-01
  21.564  0.373E-01  0.238E-01
  21.584  0.376E-01  0.243E-01
  21.604  0.383E-01  0.249E-01
  21.624  0.393E-01  0.258E-01
  21.644  0.404E-01  0.268E-01
  21.664  0.418E-01  0.279E-01
  21.684  0.433E-01  0.291E-01
  21.704  0.449E-01  0.303E-01
  21.724  0.465E-01  0.315E-01
  21.744  0.480E-01  0.327E-01
  21.764  0.494E-01  0.338E-01
  21.784  0.506E-01  0.348E-01
  21.804  0.516E-01  0.357E-01
  21.824  0.524E-01  0.364E-01
  21.844  0.530E-01  0.370E-01
  21.864  0.532E-01  0.373E-01
  21.884  0.532E-01  0.375E-01
  21.904  0.530E-01  0.376E-01
  21.924  0.525E-01  0.375E-01
  21.944  0.519E-01  0.372E-01
  21.964  0.511E-01  0.369E-01
  21.984  0.502E-01  0.365E-01
  22.004  0.492E-01  0.360E-01
  22.024  0.482E-01  0.356E-01
  22.044  0.472E-01  0.351E-01
  22.064  0.462E-01  0.346E-01
  22.084  0.452E-01  0.341E-01
  22.104  0.443E-01  0.337E-01
  22.124  0.434E-01  0.333E-01
  22.144  0.426E-01  0.329E-01
  22.164  0.418E-01  0.325E-01
  22.184  0.410E-01  0.321E-01
  22.204  0.402E-01  0.316E-01
  22.224  0.394E-01  0.311E-01
  22.244  0.385E-01  0.306E-01
  22.264  0.376E-01  0.300E-01
  22.284  0.366E-01  0.293E-01
  22.304  0.355E-01  0.286E-01
  22.324  0.344E-01  0.278E-01
  22.344  0.332E-01  0.269E-01
  22.364  0.321E-01  0.261E-01
  22.384  0.309E-01  0.252E-01
  22.404  0.297E-01  0.243E-01
  22.424  0.285E-01  0.234E-01
  22.444  0.274E-01  0.225E-01
  22.464  0.263E-01  0.217E-01
  22.484  0.254E-01  0.210E-01
  22.504  0.245E-01  0.203E-01
  22.524  0.238E-01  0.198E-01
  22.544  0.231E-01  0.193E-01
  22.564  0.226E-01  0.189E-01
  22.584  0.222E-01  0.186E-01
  22.604  0.219E-01  0.184E-01
  22.624  0.218E-01  0.183E-01
  22.644  0.217E-01  0.183E-01
  22.664  0.218E-01  0.184E-01
  22.684  0.220E-01  0.185E-01
  22.704  0.223E-01  0.188E-01
  22.724  0.227E-01  0.191E-01
  22.744  0.232E-01  0.196E-01
  22.764  0.237E-01  0.200E-01
  22.784  0.243E-01  0.206E-01
  22.804  0.250E-01  0.211E-01
  22.824  0.257E-01  0.217E-01
  22.844  0.264E-01  0.223E-01
  22.864  0.270E-01  0.229E-01
  22.884  0.276E-01  0.234E-01
  22.904  0.282E-01  0.239E-01
  22.924  0.286E-01  0.242E-01
  22.944  0.288E-01  0.244E-01
  22.964  0.290E-01  0.245E-01
  22.984  0.289E-01  0.245E-01
  23.004  0.286E-01  0.243E-01
  23.024  0.282E-01  0.239E-01
  23.044  0.276E-01  0.234E-01
  23.064  0.267E-01  0.227E-01
  23.084  0.258E-01  0.219E-01
  23.104  0.246E-01  0.209E-01
  23.124  0.234E-01  0.198E-01
  23.144  0.221E-01  0.187E-01
  23.164  0.206E-01  0.175E-01
  23.184  0.192E-01  0.163E-01
  23.204  0.177E-01  0.151E-01
  23.224  0.163E-01  0.138E-01
  23.244  0.149E-01  0.127E-01
  23.264  0.136E-01  0.115E-01
  23.284  0.123E-01  0.105E-01
  23.304  0.111E-01  0.946E-02
  23.324  0.100E-01  0.855E-02
  23.344  0.908E-02  0.773E-02
  23.364  0.823E-02  0.701E-02
  23.384  0.749E-02  0.639E-02
  23.404  0.687E-02  0.586E-02
  23.424  0.635E-02  0.543E-02
  23.444  0.595E-02  0.509E-02
  23.464  0.565E-02  0.483E-02
  23.484  0.544E-02  0.466E-02
  23.504  0.533E-02  0.457E-02
  23.524  0.529E-02  0.455E-02
  23.544  0.533E-02  0.458E-02
  23.564  0.544E-02  0.468E-02
  23.584  0.560E-02  0.482E-02
  23.604  0.580E-02  0.499E-02
  23.624  0.604E-02  0.520E-02
  23.644  0.631E-02  0.543E-02
  23.664  0.659E-02  0.568E-02
  23.684  0.688E-02  0.592E-02
  23.704  0.717E-02  0.617E-02
  23.724  0.745E-02  0.641E-02
  23.744  0.771E-02  0.664E-02
  23.764  0.795E-02  0.684E-02
  23.784  0.816E-02  0.702E-02
  23.804  0.833E-02  0.716E-02
  23.824  0.846E-02  0.727E-02
  23.844  0.853E-02  0.734E-02
  23.864  0.856E-02  0.736E-02
  23.884  0.853E-02  0.733E-02
  23.904  0.845E-02  0.726E-02
  23.924  0.831E-02  0.713E-02
  23.944  0.811E-02  0.696E-02
  23.964  0.786E-02  0.674E-02
  23.984  0.755E-02  0.648E-02
  24.004  0.720E-02  0.618E-02
  24.024  0.681E-02  0.584E-02
  24.044  0.639E-02  0.548E-02
  24.064  0.594E-02  0.509E-02
  24.084  0.547E-02  0.469E-02
  24.104  0.500E-02  0.429E-02
  24.124  0.452E-02  0.388E-02
  24.144  0.405E-02  0.347E-02
  24.164  0.360E-02  0.308E-02
  24.184  0.316E-02  0.271E-02
  24.204  0.275E-02  0.236E-02
  24.224  0.237E-02  0.203E-02
  24.244  0.203E-02  0.174E-02
  24.264  0.171E-02  0.147E-02
  24.284  0.143E-02  0.123E-02
  24.304  0.118E-02  0.101E-02
  24.324  0.970E-03  0.831E-03
  24.344  0.786E-03  0.674E-03
  24.364  0.631E-03  0.540E-03
  24.384  0.501E-03  0.429E-03
  24.404  0.393E-03  0.337E-03
  24.424  0.306E-03  0.262E-03
  24.444  0.235E-03  0.201E-03
  24.464  0.179E-03  0.153E-03
  24.484  0.135E-03  0.115E-03
  24.504  0.100E-03  0.860E-04
  24.524  0.740E-04  0.634E-04
  24.544  0.539E-04  0.462E-04
  24.564  0.389E-04  0.333E-04
  24.584  0.278E-04  0.238E-04
  24.604  0.196E-04  0.168E-04
  24.624  0.137E-04  0.117E-04
  24.644  0.947E-05  0.811E-05
  24.664  0.647E-05  0.554E-05
  24.684  0.438E-05  0.375E-05
  24.704  0.293E-05  0.251E-05
  24.724  0.194E-05  0.166E-05
  24.744  0.127E-05  0.109E-05
  24.764  0.823E-06  0.705E-06
  24.784  0.527E-06  0.452E-06
