# E (eV)  dos(E)    pdos(E)
  -4.251  0.920E-06  0.912E-06
  -4.231  0.125E-05  0.124E-05
  -4.211  0.169E-05  0.167E-05
  -4.191  0.227E-05  0.225E-05
  -4.171  0.303E-05  0.301E-05
  -4.151  0.404E-05  0.401E-05
  -4.131  0.536E-05  0.532E-05
  -4.111  0.708E-05  0.703E-05
  -4.091  0.931E-05  0.924E-05
  -4.071  0.122E-04  0.121E-04
  -4.051  0.159E-04  0.158E-04
  -4.031  0.206E-04  0.205E-04
  -4.011  0.266E-04  0.264E-04
  -3.991  0.343E-04  0.340E-04
  -3.971  0.439E-04  0.436E-04
  -3.951  0.560E-04  0.556E-04
  -3.931  0.711E-04  0.705E-04
  -3.911  0.898E-04  0.892E-04
  -3.891  0.113E-03  0.112E-03
  -3.871  0.142E-03  0.141E-03
  -3.851  0.177E-03  0.175E-03
  -3.831  0.220E-03  0.218E-03
  -3.811  0.272E-03  0.270E-03
  -3.791  0.335E-03  0.332E-03
  -3.771  0.411E-03  0.408E-03
  -3.751  0.502E-03  0.498E-03
  -3.731  0.611E-03  0.606E-03
  -3.711  0.740E-03  0.734E-03
  -3.691  0.893E-03  0.886E-03
  -3.671  0.107E-02  0.106E-02
  -3.651  0.128E-02  0.127E-02
  -3.631  0.153E-02  0.152E-02
  -3.611  0.182E-02  0.180E-02
  -3.591  0.215E-02  0.213E-02
  -3.571  0.253E-02  0.251E-02
  -3.551  0.296E-02  0.294E-02
  -3.531  0.346E-02  0.343E-02
  -3.511  0.403E-02  0.399E-02
  -3.491  0.467E-02  0.463E-02
  -3.471  0.539E-02  0.534E-02
  -3.451  0.619E-02  0.615E-02
  -3.431  0.709E-02  0.704E-02
  -3.411  0.810E-02  0.804E-02
  -3.391  0.921E-02  0.914E-02
  -3.371  0.104E-01  0.104E-01
  -3.351  0.118E-01  0.117E-01
  -3.331  0.132E-01  0.131E-01
  -3.311  0.148E-01  0.147E-01
  -3.291  0.166E-01  0.164E-01
  -3.271  0.184E-01  0.183E-01
  -3.251  0.204E-01  0.203E-01
  -3.231  0.226E-01  0.224E-01
  -3.211  0.249E-01  0.247E-01
  -3.191  0.273E-01  0.271E-01
  -3.171  0.299E-01  0.297E-01
  -3.151  0.326E-01  0.324E-01
  -3.131  0.355E-01  0.352E-01
  -3.111  0.385E-01  0.382E-01
  -3.091  0.416E-01  0.413E-01
  -3.071  0.448E-01  0.445E-01
  -3.051  0.481E-01  0.478E-01
  -3.031  0.516E-01  0.512E-01
  -3.011  0.551E-01  0.547E-01
  -2.991  0.588E-01  0.583E-01
  -2.971  0.625E-01  0.620E-01
  -2.951  0.663E-01  0.658E-01
  -2.931  0.701E-01  0.696E-01
  -2.911  0.740E-01  0.734E-01
  -2.891  0.779E-01  0.773E-01
  -2.871  0.818E-01  0.812E-01
  -2.851  0.857E-01  0.851E-01
  -2.831  0.897E-01  0.890E-01
  -2.811  0.936E-01  0.929E-01
  -2.791  0.975E-01  0.968E-01
  -2.771  0.101E+00  0.101E+00
  -2.751  0.105E+00  0.105E+00
  -2.731  0.109E+00  0.108E+00
  -2.711  0.113E+00  0.112E+00
  -2.691  0.117E+00  0.116E+00
  -2.671  0.120E+00  0.120E+00
  -2.651  0.124E+00  0.123E+00
  -2.631  0.128E+00  0.127E+00
  -2.611  0.131E+00  0.130E+00
  -2.591  0.135E+00  0.134E+00
  -2.571  0.138E+00  0.137E+00
  -2.551  0.141E+00  0.140E+00
  -2.531  0.144E+00  0.143E+00
  -2.511  0.148E+00  0.147E+00
  -2.491  0.151E+00  0.150E+00
  -2.471  0.154E+00  0.153E+00
  -2.451  0.157E+00  0.156E+00
  -2.431  0.160E+00  0.159E+00
  -2.411  0.163E+00  0.161E+00
  -2.391  0.165E+00  0.164E+00
  -2.371  0.168E+00  0.167E+00
  -2.351  0.171E+00  0.170E+00
  -2.331  0.174E+00  0.172E+00
  -2.311  0.176E+00  0.175E+00
  -2.291  0.179E+00  0.178E+00
  -2.271  0.181E+00  0.180E+00
  -2.251  0.184E+00  0.183E+00
  -2.231  0.186E+00  0.185E+00
  -2.211  0.189E+00  0.187E+00
  -2.191  0.191E+00  0.190E+00
  -2.171  0.193E+00  0.192E+00
  -2.151  0.196E+00  0.194E+00
  -2.131  0.198E+00  0.197E+00
  -2.111  0.200E+00  0.199E+00
  -2.091  0.203E+00  0.201E+00
  -2.071  0.205E+00  0.203E+00
  -2.051  0.207E+00  0.205E+00
  -2.031  0.209E+00  0.207E+00
  -2.011  0.211E+00  0.210E+00
  -1.991  0.213E+00  0.212E+00
  -1.971  0.215E+00  0.214E+00
  -1.951  0.217E+00  0.216E+00
  -1.931  0.219E+00  0.218E+00
  -1.911  0.221E+00  0.219E+00
  -1.891  0.223E+00  0.221E+00
  -1.871  0.225E+00  0.223E+00
  -1.851  0.227E+00  0.225E+00
  -1.831  0.229E+00  0.227E+00
  -1.811  0.231E+00  0.229E+00
  -1.791  0.233E+00  0.231E+00
  -1.771  0.235E+00  0.233E+00
  -1.751  0.237E+00  0.235E+00
  -1.731  0.239E+00  0.236E+00
  -1.711  0.241E+00  0.238E+00
  -1.691  0.243E+00  0.240E+00
  -1.671  0.244E+00  0.242E+00
  -1.651  0.246E+00  0.244E+00
  -1.631  0.248E+00  0.246E+00
  -1.611  0.250E+00  0.248E+00
  -1.591  0.252E+00  0.249E+00
  -1.571  0.254E+00  0.251E+00
  -1.551  0.256E+00  0.253E+00
  -1.531  0.258E+00  0.255E+00
  -1.511  0.259E+00  0.256E+00
  -1.491  0.261E+00  0.258E+00
  -1.471  0.263E+00  0.260E+00
  -1.451  0.265E+00  0.261E+00
  -1.431  0.266E+00  0.263E+00
  -1.411  0.268E+00  0.265E+00
  -1.391  0.270E+00  0.266E+00
  -1.371  0.271E+00  0.268E+00
  -1.351  0.273E+00  0.269E+00
  -1.331  0.274E+00  0.271E+00
  -1.311  0.276E+00  0.272E+00
  -1.291  0.277E+00  0.274E+00
  -1.271  0.279E+00  0.275E+00
  -1.251  0.281E+00  0.277E+00
  -1.231  0.282E+00  0.278E+00
  -1.211  0.284E+00  0.280E+00
  -1.191  0.285E+00  0.281E+00
  -1.171  0.287E+00  0.283E+00
  -1.151  0.289E+00  0.284E+00
  -1.131  0.290E+00  0.286E+00
  -1.111  0.292E+00  0.288E+00
  -1.091  0.294E+00  0.289E+00
  -1.071  0.296E+00  0.291E+00
  -1.051  0.297E+00  0.293E+00
  -1.031  0.299E+00  0.294E+00
  -1.011  0.301E+00  0.296E+00
  -0.991  0.303E+00  0.298E+00
  -0.971  0.305E+00  0.300E+00
  -0.951  0.306E+00  0.301E+00
  -0.931  0.308E+00  0.303E+00
  -0.911  0.310E+00  0.305E+00
  -0.891  0.312E+00  0.307E+00
  -0.871  0.314E+00  0.308E+00
  -0.851  0.315E+00  0.310E+00
  -0.831  0.317E+00  0.311E+00
  -0.811  0.319E+00  0.313E+00
  -0.791  0.320E+00  0.315E+00
  -0.771  0.322E+00  0.316E+00
  -0.751  0.323E+00  0.318E+00
  -0.731  0.325E+00  0.319E+00
  -0.711  0.326E+00  0.320E+00
  -0.691  0.328E+00  0.322E+00
  -0.671  0.329E+00  0.323E+00
  -0.651  0.330E+00  0.324E+00
  -0.631  0.332E+00  0.326E+00
  -0.611  0.333E+00  0.327E+00
  -0.591  0.335E+00  0.328E+00
  -0.571  0.336E+00  0.329E+00
  -0.551  0.337E+00  0.331E+00
  -0.531  0.339E+00  0.332E+00
  -0.511  0.340E+00  0.333E+00
  -0.491  0.342E+00  0.335E+00
  -0.471  0.343E+00  0.336E+00
  -0.451  0.345E+00  0.338E+00
  -0.431  0.347E+00  0.339E+00
  -0.411  0.348E+00  0.341E+00
  -0.391  0.350E+00  0.342E+00
  -0.371  0.352E+00  0.344E+00
  -0.351  0.354E+00  0.346E+00
  -0.331  0.356E+00  0.348E+00
  -0.311  0.358E+00  0.350E+00
  -0.291  0.360E+00  0.352E+00
  -0.271  0.363E+00  0.354E+00
  -0.251  0.365E+00  0.356E+00
  -0.231  0.367E+00  0.358E+00
  -0.211  0.369E+00  0.360E+00
  -0.191  0.372E+00  0.362E+00
  -0.171  0.374E+00  0.364E+00
  -0.151  0.376E+00  0.366E+00
  -0.131  0.379E+00  0.368E+00
  -0.111  0.381E+00  0.370E+00
  -0.091  0.383E+00  0.372E+00
  -0.071  0.386E+00  0.374E+00
  -0.051  0.388E+00  0.376E+00
  -0.031  0.390E+00  0.378E+00
  -0.011  0.392E+00  0.380E+00
   0.009  0.394E+00  0.381E+00
   0.029  0.396E+00  0.383E+00
   0.049  0.398E+00  0.384E+00
   0.069  0.400E+00  0.386E+00
   0.089  0.402E+00  0.387E+00
   0.109  0.404E+00  0.389E+00
   0.129  0.406E+00  0.390E+00
   0.149  0.408E+00  0.392E+00
   0.169  0.410E+00  0.393E+00
   0.189  0.412E+00  0.395E+00
   0.209  0.414E+00  0.396E+00
   0.229  0.416E+00  0.397E+00
   0.249  0.419E+00  0.399E+00
   0.269  0.421E+00  0.401E+00
   0.289  0.424E+00  0.402E+00
   0.309  0.426E+00  0.404E+00
   0.329  0.429E+00  0.406E+00
   0.349  0.432E+00  0.408E+00
   0.369  0.435E+00  0.411E+00
   0.389  0.439E+00  0.413E+00
   0.409  0.443E+00  0.416E+00
   0.429  0.446E+00  0.419E+00
   0.449  0.450E+00  0.422E+00
   0.469  0.455E+00  0.425E+00
   0.489  0.459E+00  0.428E+00
   0.509  0.463E+00  0.432E+00
   0.529  0.468E+00  0.435E+00
   0.549  0.473E+00  0.439E+00
   0.569  0.477E+00  0.442E+00
   0.589  0.482E+00  0.446E+00
   0.609  0.487E+00  0.450E+00
   0.629  0.491E+00  0.453E+00
   0.649  0.496E+00  0.457E+00
   0.669  0.500E+00  0.460E+00
   0.689  0.504E+00  0.463E+00
   0.709  0.508E+00  0.466E+00
   0.729  0.511E+00  0.469E+00
   0.749  0.514E+00  0.471E+00
   0.769  0.517E+00  0.474E+00
   0.789  0.519E+00  0.475E+00
   0.809  0.521E+00  0.477E+00
   0.829  0.523E+00  0.478E+00
   0.849  0.524E+00  0.479E+00
   0.869  0.525E+00  0.479E+00
   0.889  0.525E+00  0.479E+00
   0.909  0.525E+00  0.479E+00
   0.929  0.524E+00  0.478E+00
   0.949  0.523E+00  0.477E+00
   0.969  0.522E+00  0.476E+00
   0.989  0.520E+00  0.474E+00
   1.009  0.518E+00  0.472E+00
   1.029  0.515E+00  0.470E+00
   1.049  0.513E+00  0.468E+00
   1.069  0.510E+00  0.466E+00
   1.089  0.507E+00  0.463E+00
   1.109  0.504E+00  0.460E+00
   1.129  0.501E+00  0.458E+00
   1.149  0.498E+00  0.455E+00
   1.169  0.495E+00  0.452E+00
   1.189  0.492E+00  0.449E+00
   1.209  0.489E+00  0.446E+00
   1.229  0.486E+00  0.444E+00
   1.249  0.483E+00  0.441E+00
   1.269  0.480E+00  0.439E+00
   1.289  0.477E+00  0.436E+00
   1.309  0.475E+00  0.434E+00
   1.329  0.472E+00  0.431E+00
   1.349  0.470E+00  0.429E+00
   1.369  0.467E+00  0.426E+00
   1.389  0.465E+00  0.424E+00
   1.409  0.462E+00  0.422E+00
   1.429  0.460E+00  0.419E+00
   1.449  0.457E+00  0.417E+00
   1.469  0.455E+00  0.414E+00
   1.489  0.452E+00  0.412E+00
   1.509  0.449E+00  0.409E+00
   1.529  0.446E+00  0.406E+00
   1.549  0.443E+00  0.403E+00
   1.569  0.440E+00  0.400E+00
   1.589  0.437E+00  0.397E+00
   1.609  0.433E+00  0.393E+00
   1.629  0.429E+00  0.389E+00
   1.649  0.425E+00  0.385E+00
   1.669  0.421E+00  0.381E+00
   1.689  0.416E+00  0.376E+00
   1.709  0.411E+00  0.371E+00
   1.729  0.406E+00  0.366E+00
   1.749  0.401E+00  0.361E+00
   1.769  0.396E+00  0.356E+00
   1.789  0.390E+00  0.350E+00
   1.809  0.384E+00  0.344E+00
   1.829  0.379E+00  0.338E+00
   1.849  0.373E+00  0.332E+00
   1.869  0.367E+00  0.326E+00
   1.889  0.361E+00  0.320E+00
   1.909  0.354E+00  0.313E+00
   1.929  0.348E+00  0.307E+00
   1.949  0.342E+00  0.301E+00
   1.969  0.336E+00  0.295E+00
   1.989  0.330E+00  0.289E+00
   2.009  0.325E+00  0.283E+00
   2.029  0.319E+00  0.277E+00
   2.049  0.314E+00  0.271E+00
   2.069  0.308E+00  0.265E+00
   2.089  0.303E+00  0.260E+00
   2.109  0.299E+00  0.255E+00
   2.129  0.294E+00  0.250E+00
   2.149  0.290E+00  0.245E+00
   2.169  0.286E+00  0.240E+00
   2.189  0.282E+00  0.236E+00
   2.209  0.279E+00  0.232E+00
   2.229  0.275E+00  0.228E+00
   2.249  0.272E+00  0.225E+00
   2.269  0.270E+00  0.221E+00
   2.289  0.267E+00  0.218E+00
   2.309  0.265E+00  0.215E+00
   2.329  0.262E+00  0.212E+00
   2.349  0.260E+00  0.209E+00
   2.369  0.258E+00  0.206E+00
   2.389  0.256E+00  0.204E+00
   2.409  0.254E+00  0.201E+00
   2.429  0.252E+00  0.199E+00
   2.449  0.250E+00  0.196E+00
   2.469  0.247E+00  0.193E+00
   2.489  0.245E+00  0.191E+00
   2.509  0.242E+00  0.188E+00
   2.529  0.239E+00  0.185E+00
   2.549  0.236E+00  0.182E+00
   2.569  0.233E+00  0.178E+00
   2.589  0.230E+00  0.175E+00
   2.609  0.226E+00  0.171E+00
   2.629  0.222E+00  0.167E+00
   2.649  0.218E+00  0.163E+00
   2.669  0.213E+00  0.159E+00
   2.689  0.208E+00  0.154E+00
   2.709  0.203E+00  0.149E+00
   2.729  0.198E+00  0.145E+00
   2.749  0.193E+00  0.140E+00
   2.769  0.187E+00  0.135E+00
   2.789  0.182E+00  0.130E+00
   2.809  0.176E+00  0.125E+00
   2.829  0.171E+00  0.120E+00
   2.849  0.166E+00  0.115E+00
   2.869  0.160E+00  0.110E+00
   2.889  0.155E+00  0.105E+00
   2.909  0.151E+00  0.101E+00
   2.929  0.146E+00  0.964E-01
   2.949  0.142E+00  0.923E-01
   2.969  0.138E+00  0.885E-01
   2.989  0.135E+00  0.850E-01
   3.009  0.132E+00  0.819E-01
   3.029  0.129E+00  0.791E-01
   3.049  0.128E+00  0.768E-01
   3.069  0.126E+00  0.748E-01
   3.089  0.126E+00  0.733E-01
   3.109  0.125E+00  0.722E-01
   3.129  0.126E+00  0.716E-01
   3.149  0.127E+00  0.715E-01
   3.169  0.129E+00  0.719E-01
   3.189  0.131E+00  0.727E-01
   3.209  0.134E+00  0.740E-01
   3.229  0.138E+00  0.758E-01
   3.249  0.142E+00  0.782E-01
   3.269  0.147E+00  0.810E-01
   3.289  0.152E+00  0.843E-01
   3.309  0.158E+00  0.880E-01
   3.329  0.165E+00  0.923E-01
   3.349  0.172E+00  0.970E-01
   3.369  0.180E+00  0.102E+00
   3.389  0.188E+00  0.108E+00
   3.409  0.197E+00  0.114E+00
   3.429  0.206E+00  0.121E+00
   3.449  0.215E+00  0.128E+00
   3.469  0.225E+00  0.135E+00
   3.489  0.235E+00  0.143E+00
   3.509  0.246E+00  0.151E+00
   3.529  0.257E+00  0.160E+00
   3.549  0.268E+00  0.169E+00
   3.569  0.280E+00  0.178E+00
   3.589  0.292E+00  0.188E+00
   3.609  0.304E+00  0.198E+00
   3.629  0.316E+00  0.209E+00
   3.649  0.328E+00  0.219E+00
   3.669  0.341E+00  0.230E+00
   3.689  0.353E+00  0.241E+00
   3.709  0.366E+00  0.252E+00
   3.729  0.379E+00  0.263E+00
   3.749  0.391E+00  0.275E+00
   3.769  0.404E+00  0.286E+00
   3.789  0.416E+00  0.297E+00
   3.809  0.428E+00  0.308E+00
   3.829  0.440E+00  0.319E+00
   3.849  0.452E+00  0.330E+00
   3.869  0.464E+00  0.341E+00
   3.889  0.475E+00  0.351E+00
   3.909  0.485E+00  0.361E+00
   3.929  0.496E+00  0.371E+00
   3.949  0.506E+00  0.380E+00
   3.969  0.515E+00  0.388E+00
   3.989  0.524E+00  0.396E+00
   4.009  0.533E+00  0.404E+00
   4.029  0.541E+00  0.411E+00
   4.049  0.548E+00  0.418E+00
   4.069  0.555E+00  0.424E+00
   4.089  0.562E+00  0.429E+00
   4.109  0.568E+00  0.434E+00
   4.129  0.574E+00  0.438E+00
   4.149  0.579E+00  0.442E+00
   4.169  0.583E+00  0.445E+00
   4.189  0.587E+00  0.448E+00
   4.209  0.591E+00  0.451E+00
   4.229  0.594E+00  0.452E+00
   4.249  0.597E+00  0.454E+00
   4.269  0.600E+00  0.455E+00
   4.289  0.601E+00  0.455E+00
   4.309  0.603E+00  0.455E+00
   4.329  0.604E+00  0.455E+00
   4.349  0.604E+00  0.454E+00
   4.369  0.604E+00  0.453E+00
   4.389  0.604E+00  0.452E+00
   4.409  0.603E+00  0.450E+00
   4.429  0.602E+00  0.448E+00
   4.449  0.600E+00  0.446E+00
   4.469  0.597E+00  0.443E+00
   4.489  0.594E+00  0.440E+00
   4.509  0.590E+00  0.436E+00
   4.529  0.586E+00  0.432E+00
   4.549  0.582E+00  0.428E+00
   4.569  0.577E+00  0.424E+00
   4.589  0.571E+00  0.419E+00
   4.609  0.565E+00  0.414E+00
   4.629  0.559E+00  0.409E+00
   4.649  0.552E+00  0.404E+00
   4.669  0.545E+00  0.399E+00
   4.689  0.538E+00  0.394E+00
   4.709  0.531E+00  0.388E+00
   4.729  0.524E+00  0.383E+00
   4.749  0.517E+00  0.378E+00
   4.769  0.510E+00  0.373E+00
   4.789  0.504E+00  0.368E+00
   4.809  0.497E+00  0.364E+00
   4.829  0.491E+00  0.359E+00
   4.849  0.486E+00  0.355E+00
   4.869  0.480E+00  0.352E+00
   4.889  0.476E+00  0.349E+00
   4.909  0.471E+00  0.346E+00
   4.929  0.467E+00  0.343E+00
   4.949  0.464E+00  0.341E+00
   4.969  0.461E+00  0.339E+00
   4.989  0.458E+00  0.338E+00
   5.009  0.456E+00  0.336E+00
   5.029  0.455E+00  0.335E+00
   5.049  0.453E+00  0.335E+00
   5.069  0.452E+00  0.334E+00
   5.089  0.451E+00  0.334E+00
   5.109  0.450E+00  0.333E+00
   5.129  0.449E+00  0.333E+00
   5.149  0.448E+00  0.333E+00
   5.169  0.448E+00  0.332E+00
   5.189  0.447E+00  0.332E+00
   5.209  0.446E+00  0.332E+00
   5.229  0.445E+00  0.331E+00
   5.249  0.443E+00  0.330E+00
   5.269  0.442E+00  0.329E+00
   5.289  0.440E+00  0.328E+00
   5.309  0.439E+00  0.327E+00
   5.329  0.437E+00  0.326E+00
   5.349  0.434E+00  0.324E+00
   5.369  0.432E+00  0.323E+00
   5.389  0.430E+00  0.321E+00
   5.409  0.427E+00  0.320E+00
   5.429  0.425E+00  0.318E+00
   5.449  0.423E+00  0.316E+00
   5.469  0.421E+00  0.315E+00
   5.489  0.418E+00  0.313E+00
   5.509  0.416E+00  0.312E+00
   5.529  0.415E+00  0.311E+00
   5.549  0.413E+00  0.310E+00
   5.569  0.412E+00  0.309E+00
   5.589  0.411E+00  0.308E+00
   5.609  0.410E+00  0.307E+00
   5.629  0.409E+00  0.307E+00
   5.649  0.409E+00  0.307E+00
   5.669  0.408E+00  0.306E+00
   5.689  0.408E+00  0.306E+00
   5.709  0.409E+00  0.306E+00
   5.729  0.409E+00  0.307E+00
   5.749  0.409E+00  0.307E+00
   5.769  0.409E+00  0.307E+00
   5.789  0.410E+00  0.307E+00
   5.809  0.410E+00  0.307E+00
   5.829  0.410E+00  0.307E+00
   5.849  0.410E+00  0.307E+00
   5.869  0.410E+00  0.307E+00
   5.889  0.410E+00  0.306E+00
   5.909  0.410E+00  0.306E+00
   5.929  0.409E+00  0.305E+00
   5.949  0.408E+00  0.304E+00
   5.969  0.407E+00  0.303E+00
   5.989  0.406E+00  0.302E+00
   6.009  0.405E+00  0.301E+00
   6.029  0.404E+00  0.299E+00
   6.049  0.403E+00  0.298E+00
   6.069  0.402E+00  0.297E+00
   6.089  0.401E+00  0.296E+00
   6.109  0.400E+00  0.295E+00
   6.129  0.400E+00  0.294E+00
   6.149  0.400E+00  0.294E+00
   6.169  0.400E+00  0.293E+00
   6.189  0.400E+00  0.294E+00
   6.209  0.402E+00  0.294E+00
   6.229  0.404E+00  0.295E+00
   6.249  0.406E+00  0.297E+00
   6.269  0.409E+00  0.299E+00
   6.289  0.413E+00  0.301E+00
   6.309  0.417E+00  0.304E+00
   6.329  0.422E+00  0.308E+00
   6.349  0.428E+00  0.312E+00
   6.369  0.435E+00  0.316E+00
   6.389  0.442E+00  0.322E+00
   6.409  0.450E+00  0.327E+00
   6.429  0.458E+00  0.333E+00
   6.449  0.467E+00  0.340E+00
   6.469  0.477E+00  0.347E+00
   6.489  0.486E+00  0.354E+00
   6.509  0.496E+00  0.361E+00
   6.529  0.506E+00  0.369E+00
   6.549  0.517E+00  0.376E+00
   6.569  0.527E+00  0.384E+00
   6.589  0.537E+00  0.391E+00
   6.609  0.547E+00  0.398E+00
   6.629  0.556E+00  0.406E+00
   6.649  0.565E+00  0.412E+00
   6.669  0.574E+00  0.419E+00
   6.689  0.582E+00  0.425E+00
   6.709  0.589E+00  0.430E+00
   6.729  0.595E+00  0.435E+00
   6.749  0.601E+00  0.439E+00
   6.769  0.606E+00  0.443E+00
   6.789  0.610E+00  0.446E+00
   6.809  0.613E+00  0.448E+00
   6.829  0.616E+00  0.450E+00
   6.849  0.617E+00  0.451E+00
   6.869  0.618E+00  0.451E+00
   6.889  0.618E+00  0.451E+00
   6.909  0.617E+00  0.451E+00
   6.929  0.616E+00  0.449E+00
   6.949  0.614E+00  0.448E+00
   6.969  0.612E+00  0.446E+00
   6.989  0.610E+00  0.443E+00
   7.009  0.607E+00  0.441E+00
   7.029  0.604E+00  0.438E+00
   7.049  0.602E+00  0.435E+00
   7.069  0.599E+00  0.432E+00
   7.089  0.597E+00  0.429E+00
   7.109  0.594E+00  0.427E+00
   7.129  0.593E+00  0.424E+00
   7.149  0.591E+00  0.422E+00
   7.169  0.590E+00  0.419E+00
   7.189  0.590E+00  0.417E+00
   7.209  0.590E+00  0.416E+00
   7.229  0.590E+00  0.414E+00
   7.249  0.591E+00  0.413E+00
   7.269  0.592E+00  0.412E+00
   7.289  0.594E+00  0.412E+00
   7.309  0.596E+00  0.411E+00
   7.329  0.599E+00  0.411E+00
   7.349  0.602E+00  0.411E+00
   7.369  0.605E+00  0.411E+00
   7.389  0.607E+00  0.411E+00
   7.409  0.610E+00  0.411E+00
   7.429  0.613E+00  0.411E+00
   7.449  0.616E+00  0.411E+00
   7.469  0.618E+00  0.411E+00
   7.489  0.620E+00  0.410E+00
   7.509  0.622E+00  0.409E+00
   7.529  0.623E+00  0.408E+00
   7.549  0.623E+00  0.407E+00
   7.569  0.623E+00  0.405E+00
   7.589  0.623E+00  0.403E+00
   7.609  0.622E+00  0.400E+00
   7.629  0.620E+00  0.397E+00
   7.649  0.618E+00  0.394E+00
   7.669  0.615E+00  0.391E+00
   7.689  0.611E+00  0.387E+00
   7.709  0.607E+00  0.383E+00
   7.729  0.603E+00  0.378E+00
   7.749  0.598E+00  0.373E+00
   7.769  0.593E+00  0.369E+00
   7.789  0.588E+00  0.364E+00
   7.809  0.583E+00  0.359E+00
   7.829  0.578E+00  0.354E+00
   7.849  0.572E+00  0.349E+00
   7.869  0.567E+00  0.344E+00
   7.889  0.562E+00  0.339E+00
   7.909  0.558E+00  0.335E+00
   7.929  0.553E+00  0.330E+00
   7.949  0.549E+00  0.326E+00
   7.969  0.546E+00  0.322E+00
   7.989  0.543E+00  0.318E+00
   8.009  0.540E+00  0.315E+00
   8.029  0.538E+00  0.312E+00
   8.049  0.536E+00  0.309E+00
   8.069  0.535E+00  0.307E+00
   8.089  0.535E+00  0.305E+00
   8.109  0.535E+00  0.303E+00
   8.129  0.535E+00  0.301E+00
   8.149  0.536E+00  0.300E+00
   8.169  0.537E+00  0.298E+00
   8.189  0.538E+00  0.297E+00
   8.209  0.540E+00  0.297E+00
   8.229  0.542E+00  0.296E+00
   8.249  0.543E+00  0.295E+00
   8.269  0.545E+00  0.294E+00
   8.289  0.546E+00  0.294E+00
   8.309  0.548E+00  0.293E+00
   8.329  0.549E+00  0.292E+00
   8.349  0.549E+00  0.291E+00
   8.369  0.549E+00  0.290E+00
   8.389  0.549E+00  0.289E+00
   8.409  0.548E+00  0.287E+00
   8.429  0.547E+00  0.285E+00
   8.449  0.545E+00  0.284E+00
   8.469  0.543E+00  0.281E+00
   8.489  0.540E+00  0.279E+00
   8.509  0.537E+00  0.277E+00
   8.529  0.533E+00  0.274E+00
   8.549  0.529E+00  0.272E+00
   8.569  0.524E+00  0.269E+00
   8.589  0.520E+00  0.266E+00
   8.609  0.515E+00  0.264E+00
   8.629  0.509E+00  0.261E+00
   8.649  0.504E+00  0.258E+00
   8.669  0.499E+00  0.256E+00
   8.689  0.494E+00  0.254E+00
   8.709  0.490E+00  0.252E+00
   8.729  0.486E+00  0.250E+00
   8.749  0.482E+00  0.248E+00
   8.769  0.479E+00  0.247E+00
   8.789  0.476E+00  0.247E+00
   8.809  0.475E+00  0.247E+00
   8.829  0.474E+00  0.247E+00
   8.849  0.473E+00  0.248E+00
   8.869  0.474E+00  0.249E+00
   8.889  0.475E+00  0.251E+00
   8.909  0.478E+00  0.253E+00
   8.929  0.481E+00  0.255E+00
   8.949  0.485E+00  0.259E+00
   8.969  0.489E+00  0.262E+00
   8.989  0.495E+00  0.266E+00
   9.009  0.501E+00  0.270E+00
   9.029  0.508E+00  0.275E+00
   9.049  0.515E+00  0.280E+00
   9.069  0.522E+00  0.285E+00
   9.089  0.530E+00  0.290E+00
   9.109  0.538E+00  0.295E+00
   9.129  0.547E+00  0.301E+00
   9.149  0.555E+00  0.306E+00
   9.169  0.563E+00  0.311E+00
   9.189  0.571E+00  0.316E+00
   9.209  0.578E+00  0.321E+00
   9.229  0.585E+00  0.325E+00
   9.249  0.592E+00  0.329E+00
   9.269  0.597E+00  0.333E+00
   9.289  0.603E+00  0.336E+00
   9.309  0.607E+00  0.339E+00
   9.329  0.611E+00  0.341E+00
   9.349  0.614E+00  0.343E+00
   9.369  0.616E+00  0.345E+00
   9.389  0.617E+00  0.346E+00
   9.409  0.618E+00  0.346E+00
   9.429  0.618E+00  0.346E+00
   9.449  0.617E+00  0.346E+00
   9.469  0.615E+00  0.345E+00
   9.489  0.613E+00  0.344E+00
   9.509  0.610E+00  0.343E+00
   9.529  0.607E+00  0.342E+00
   9.549  0.604E+00  0.340E+00
   9.569  0.600E+00  0.338E+00
   9.589  0.596E+00  0.337E+00
   9.609  0.592E+00  0.335E+00
   9.629  0.589E+00  0.333E+00
   9.649  0.585E+00  0.332E+00
   9.669  0.582E+00  0.331E+00
   9.689  0.579E+00  0.330E+00
   9.709  0.576E+00  0.329E+00
   9.729  0.574E+00  0.329E+00
   9.749  0.573E+00  0.329E+00
   9.769  0.572E+00  0.330E+00
   9.789  0.572E+00  0.331E+00
   9.809  0.573E+00  0.332E+00
   9.829  0.574E+00  0.334E+00
   9.849  0.576E+00  0.337E+00
   9.869  0.579E+00  0.340E+00
   9.889  0.582E+00  0.343E+00
   9.909  0.586E+00  0.346E+00
   9.929  0.591E+00  0.350E+00
   9.949  0.596E+00  0.354E+00
   9.969  0.601E+00  0.359E+00
   9.989  0.606E+00  0.363E+00
  10.009  0.612E+00  0.368E+00
  10.029  0.617E+00  0.372E+00
  10.049  0.623E+00  0.377E+00
  10.069  0.629E+00  0.381E+00
  10.089  0.634E+00  0.385E+00
  10.109  0.639E+00  0.389E+00
  10.129  0.644E+00  0.393E+00
  10.149  0.648E+00  0.396E+00
  10.169  0.652E+00  0.400E+00
  10.189  0.655E+00  0.402E+00
  10.209  0.658E+00  0.405E+00
  10.229  0.660E+00  0.407E+00
  10.249  0.662E+00  0.409E+00
  10.269  0.663E+00  0.410E+00
  10.289  0.664E+00  0.411E+00
  10.309  0.664E+00  0.412E+00
  10.329  0.663E+00  0.412E+00
  10.349  0.662E+00  0.412E+00
  10.369  0.661E+00  0.412E+00
  10.389  0.659E+00  0.412E+00
  10.409  0.657E+00  0.412E+00
  10.429  0.655E+00  0.411E+00
  10.449  0.653E+00  0.411E+00
  10.469  0.651E+00  0.410E+00
  10.489  0.648E+00  0.409E+00
  10.509  0.646E+00  0.409E+00
  10.529  0.644E+00  0.409E+00
  10.549  0.643E+00  0.408E+00
  10.569  0.641E+00  0.408E+00
  10.589  0.640E+00  0.409E+00
  10.609  0.639E+00  0.409E+00
  10.629  0.639E+00  0.410E+00
  10.649  0.639E+00  0.411E+00
  10.669  0.639E+00  0.412E+00
  10.689  0.640E+00  0.414E+00
  10.709  0.642E+00  0.415E+00
  10.729  0.644E+00  0.417E+00
  10.749  0.646E+00  0.420E+00
  10.769  0.648E+00  0.422E+00
  10.789  0.651E+00  0.424E+00
  10.809  0.654E+00  0.427E+00
  10.829  0.657E+00  0.430E+00
  10.849  0.660E+00  0.432E+00
  10.869  0.663E+00  0.435E+00
  10.889  0.666E+00  0.437E+00
  10.909  0.669E+00  0.440E+00
  10.929  0.671E+00  0.442E+00
  10.949  0.674E+00  0.444E+00
  10.969  0.675E+00  0.446E+00
  10.989  0.677E+00  0.447E+00
  11.009  0.677E+00  0.448E+00
  11.029  0.678E+00  0.449E+00
  11.049  0.677E+00  0.449E+00
  11.069  0.676E+00  0.449E+00
  11.089  0.675E+00  0.448E+00
  11.109  0.672E+00  0.447E+00
  11.129  0.669E+00  0.446E+00
  11.149  0.666E+00  0.444E+00
  11.169  0.662E+00  0.442E+00
  11.189  0.657E+00  0.440E+00
  11.209  0.652E+00  0.437E+00
  11.229  0.646E+00  0.434E+00
  11.249  0.640E+00  0.431E+00
  11.269  0.634E+00  0.427E+00
  11.289  0.628E+00  0.424E+00
  11.309  0.621E+00  0.420E+00
  11.329  0.615E+00  0.417E+00
  11.349  0.608E+00  0.413E+00
  11.369  0.602E+00  0.410E+00
  11.389  0.596E+00  0.407E+00
  11.409  0.590E+00  0.404E+00
  11.429  0.585E+00  0.401E+00
  11.449  0.580E+00  0.399E+00
  11.469  0.576E+00  0.397E+00
  11.489  0.573E+00  0.395E+00
  11.509  0.570E+00  0.394E+00
  11.529  0.568E+00  0.393E+00
  11.549  0.567E+00  0.393E+00
  11.569  0.567E+00  0.393E+00
  11.589  0.567E+00  0.394E+00
  11.609  0.568E+00  0.395E+00
  11.629  0.571E+00  0.396E+00
  11.649  0.574E+00  0.399E+00
  11.669  0.578E+00  0.401E+00
  11.689  0.582E+00  0.404E+00
  11.709  0.588E+00  0.408E+00
  11.729  0.594E+00  0.412E+00
  11.749  0.601E+00  0.416E+00
  11.769  0.609E+00  0.421E+00
  11.789  0.617E+00  0.426E+00
  11.809  0.625E+00  0.432E+00
  11.829  0.634E+00  0.437E+00
  11.849  0.643E+00  0.443E+00
  11.869  0.653E+00  0.449E+00
  11.889  0.663E+00  0.455E+00
  11.909  0.672E+00  0.461E+00
  11.929  0.682E+00  0.467E+00
  11.949  0.692E+00  0.473E+00
  11.969  0.701E+00  0.479E+00
  11.989  0.710E+00  0.485E+00
  12.009  0.719E+00  0.491E+00
  12.029  0.728E+00  0.496E+00
  12.049  0.736E+00  0.502E+00
  12.069  0.744E+00  0.507E+00
  12.089  0.752E+00  0.512E+00
  12.109  0.759E+00  0.516E+00
  12.129  0.765E+00  0.521E+00
  12.149  0.771E+00  0.525E+00
  12.169  0.777E+00  0.529E+00
  12.189  0.783E+00  0.533E+00
  12.209  0.788E+00  0.536E+00
  12.229  0.792E+00  0.539E+00
  12.249  0.797E+00  0.543E+00
  12.269  0.801E+00  0.546E+00
  12.289  0.805E+00  0.548E+00
  12.309  0.809E+00  0.551E+00
  12.329  0.812E+00  0.554E+00
  12.349  0.816E+00  0.556E+00
  12.369  0.819E+00  0.559E+00
  12.389  0.823E+00  0.561E+00
  12.409  0.826E+00  0.563E+00
  12.429  0.829E+00  0.566E+00
  12.449  0.832E+00  0.568E+00
  12.469  0.836E+00  0.570E+00
  12.489  0.839E+00  0.572E+00
  12.509  0.842E+00  0.574E+00
  12.529  0.845E+00  0.576E+00
  12.549  0.848E+00  0.578E+00
  12.569  0.851E+00  0.580E+00
  12.589  0.853E+00  0.582E+00
  12.609  0.856E+00  0.583E+00
  12.629  0.858E+00  0.585E+00
  12.649  0.861E+00  0.586E+00
  12.669  0.863E+00  0.587E+00
  12.689  0.864E+00  0.588E+00
  12.709  0.866E+00  0.589E+00
  12.729  0.867E+00  0.590E+00
  12.749  0.869E+00  0.591E+00
  12.769  0.869E+00  0.592E+00
  12.789  0.870E+00  0.592E+00
  12.809  0.871E+00  0.592E+00
  12.829  0.871E+00  0.593E+00
  12.849  0.871E+00  0.593E+00
  12.869  0.871E+00  0.593E+00
  12.889  0.870E+00  0.592E+00
  12.909  0.869E+00  0.592E+00
  12.929  0.869E+00  0.592E+00
  12.949  0.867E+00  0.591E+00
  12.969  0.866E+00  0.590E+00
  12.989  0.864E+00  0.589E+00
  13.009  0.862E+00  0.588E+00
  13.029  0.860E+00  0.587E+00
  13.049  0.857E+00  0.586E+00
  13.069  0.855E+00  0.584E+00
  13.089  0.852E+00  0.582E+00
  13.109  0.848E+00  0.580E+00
  13.129  0.844E+00  0.578E+00
  13.149  0.840E+00  0.576E+00
  13.169  0.836E+00  0.573E+00
  13.189  0.831E+00  0.570E+00
  13.209  0.826E+00  0.567E+00
  13.229  0.821E+00  0.564E+00
  13.249  0.815E+00  0.561E+00
  13.269  0.809E+00  0.557E+00
  13.289  0.802E+00  0.553E+00
  13.309  0.795E+00  0.549E+00
  13.329  0.788E+00  0.544E+00
  13.349  0.780E+00  0.540E+00
  13.369  0.772E+00  0.535E+00
  13.389  0.763E+00  0.529E+00
  13.409  0.754E+00  0.524E+00
  13.429  0.745E+00  0.518E+00
  13.449  0.736E+00  0.512E+00
  13.469  0.726E+00  0.506E+00
  13.489  0.716E+00  0.500E+00
  13.509  0.706E+00  0.493E+00
  13.529  0.695E+00  0.487E+00
  13.549  0.684E+00  0.480E+00
  13.569  0.673E+00  0.473E+00
  13.589  0.662E+00  0.466E+00
  13.609  0.651E+00  0.459E+00
  13.629  0.640E+00  0.452E+00
  13.649  0.629E+00  0.445E+00
  13.669  0.617E+00  0.438E+00
  13.689  0.606E+00  0.430E+00
  13.709  0.595E+00  0.423E+00
  13.729  0.584E+00  0.417E+00
  13.749  0.574E+00  0.410E+00
  13.769  0.563E+00  0.403E+00
  13.789  0.553E+00  0.397E+00
  13.809  0.543E+00  0.390E+00
  13.829  0.534E+00  0.384E+00
  13.849  0.524E+00  0.378E+00
  13.869  0.515E+00  0.373E+00
  13.889  0.507E+00  0.367E+00
  13.909  0.498E+00  0.362E+00
  13.929  0.490E+00  0.357E+00
  13.949  0.483E+00  0.352E+00
  13.969  0.475E+00  0.347E+00
  13.989  0.468E+00  0.343E+00
  14.009  0.461E+00  0.338E+00
  14.029  0.455E+00  0.334E+00
  14.049  0.448E+00  0.330E+00
  14.069  0.442E+00  0.326E+00
  14.089  0.435E+00  0.322E+00
  14.109  0.429E+00  0.318E+00
  14.129  0.423E+00  0.314E+00
  14.149  0.417E+00  0.310E+00
  14.169  0.411E+00  0.306E+00
  14.189  0.406E+00  0.302E+00
  14.209  0.400E+00  0.298E+00
  14.229  0.394E+00  0.294E+00
  14.249  0.388E+00  0.290E+00
  14.269  0.382E+00  0.286E+00
  14.289  0.376E+00  0.283E+00
  14.309  0.370E+00  0.279E+00
  14.329  0.365E+00  0.275E+00
  14.349  0.359E+00  0.271E+00
  14.369  0.353E+00  0.267E+00
  14.389  0.347E+00  0.263E+00
  14.409  0.342E+00  0.259E+00
  14.429  0.336E+00  0.256E+00
  14.449  0.331E+00  0.252E+00
  14.469  0.326E+00  0.249E+00
  14.489  0.321E+00  0.245E+00
  14.509  0.316E+00  0.242E+00
  14.529  0.311E+00  0.239E+00
  14.549  0.307E+00  0.236E+00
  14.569  0.303E+00  0.233E+00
  14.589  0.299E+00  0.231E+00
  14.609  0.296E+00  0.229E+00
  14.629  0.293E+00  0.227E+00
  14.649  0.290E+00  0.225E+00
  14.669  0.288E+00  0.224E+00
  14.689  0.286E+00  0.223E+00
  14.709  0.285E+00  0.222E+00
  14.729  0.284E+00  0.221E+00
  14.749  0.283E+00  0.221E+00
  14.769  0.283E+00  0.221E+00
  14.789  0.283E+00  0.222E+00
  14.809  0.284E+00  0.222E+00
  14.829  0.285E+00  0.223E+00
  14.849  0.287E+00  0.225E+00
  14.869  0.289E+00  0.226E+00
  14.889  0.291E+00  0.228E+00
  14.909  0.293E+00  0.230E+00
  14.929  0.296E+00  0.232E+00
  14.949  0.299E+00  0.234E+00
  14.969  0.302E+00  0.237E+00
  14.989  0.305E+00  0.239E+00
  15.009  0.308E+00  0.242E+00
  15.029  0.311E+00  0.244E+00
  15.049  0.315E+00  0.247E+00
  15.069  0.318E+00  0.249E+00
  15.089  0.321E+00  0.251E+00
  15.109  0.324E+00  0.254E+00
  15.129  0.327E+00  0.256E+00
  15.149  0.330E+00  0.258E+00
  15.169  0.332E+00  0.260E+00
  15.189  0.334E+00  0.262E+00
  15.209  0.337E+00  0.263E+00
  15.229  0.339E+00  0.265E+00
  15.249  0.340E+00  0.266E+00
  15.269  0.342E+00  0.267E+00
  15.289  0.343E+00  0.268E+00
  15.309  0.345E+00  0.269E+00
  15.329  0.346E+00  0.270E+00
  15.349  0.347E+00  0.271E+00
  15.369  0.348E+00  0.271E+00
  15.389  0.349E+00  0.272E+00
  15.409  0.350E+00  0.273E+00
  15.429  0.351E+00  0.273E+00
  15.449  0.352E+00  0.274E+00
  15.469  0.353E+00  0.275E+00
  15.489  0.354E+00  0.276E+00
  15.509  0.356E+00  0.277E+00
  15.529  0.357E+00  0.278E+00
  15.549  0.359E+00  0.279E+00
  15.569  0.361E+00  0.280E+00
  15.589  0.363E+00  0.282E+00
  15.609  0.366E+00  0.284E+00
  15.629  0.368E+00  0.285E+00
  15.649  0.371E+00  0.287E+00
  15.669  0.374E+00  0.290E+00
  15.689  0.377E+00  0.292E+00
  15.709  0.380E+00  0.294E+00
  15.729  0.384E+00  0.296E+00
  15.749  0.387E+00  0.299E+00
  15.769  0.390E+00  0.301E+00
  15.789  0.394E+00  0.304E+00
  15.809  0.397E+00  0.306E+00
  15.829  0.400E+00  0.308E+00
  15.849  0.403E+00  0.310E+00
  15.869  0.405E+00  0.312E+00
  15.889  0.408E+00  0.313E+00
  15.909  0.410E+00  0.315E+00
  15.929  0.412E+00  0.316E+00
  15.949  0.413E+00  0.317E+00
  15.969  0.414E+00  0.317E+00
  15.989  0.414E+00  0.317E+00
  16.009  0.414E+00  0.317E+00
  16.029  0.414E+00  0.316E+00
  16.049  0.413E+00  0.315E+00
  16.069  0.412E+00  0.314E+00
  16.089  0.410E+00  0.312E+00
  16.109  0.408E+00  0.310E+00
  16.129  0.405E+00  0.307E+00
  16.149  0.402E+00  0.305E+00
  16.169  0.399E+00  0.302E+00
  16.189  0.396E+00  0.299E+00
  16.209  0.392E+00  0.295E+00
  16.229  0.388E+00  0.292E+00
  16.249  0.385E+00  0.289E+00
  16.269  0.381E+00  0.285E+00
  16.289  0.377E+00  0.282E+00
  16.309  0.374E+00  0.279E+00
  16.329  0.370E+00  0.275E+00
  16.349  0.367E+00  0.272E+00
  16.369  0.365E+00  0.270E+00
  16.389  0.363E+00  0.267E+00
  16.409  0.361E+00  0.265E+00
  16.429  0.359E+00  0.264E+00
  16.449  0.359E+00  0.262E+00
  16.469  0.358E+00  0.261E+00
  16.489  0.359E+00  0.261E+00
  16.509  0.359E+00  0.261E+00
  16.529  0.360E+00  0.261E+00
  16.549  0.362E+00  0.261E+00
  16.569  0.364E+00  0.262E+00
  16.589  0.366E+00  0.263E+00
  16.609  0.369E+00  0.265E+00
  16.629  0.372E+00  0.266E+00
  16.649  0.375E+00  0.268E+00
  16.669  0.378E+00  0.270E+00
  16.689  0.381E+00  0.272E+00
  16.709  0.384E+00  0.273E+00
  16.729  0.387E+00  0.275E+00
  16.749  0.389E+00  0.276E+00
  16.769  0.392E+00  0.278E+00
  16.789  0.393E+00  0.279E+00
  16.809  0.395E+00  0.280E+00
  16.829  0.396E+00  0.280E+00
  16.849  0.396E+00  0.280E+00
  16.869  0.396E+00  0.280E+00
  16.889  0.395E+00  0.279E+00
  16.909  0.393E+00  0.278E+00
  16.929  0.391E+00  0.276E+00
  16.949  0.389E+00  0.275E+00
  16.969  0.386E+00  0.272E+00
  16.989  0.382E+00  0.270E+00
  17.009  0.378E+00  0.267E+00
  17.029  0.373E+00  0.263E+00
  17.049  0.368E+00  0.260E+00
  17.069  0.363E+00  0.256E+00
  17.089  0.357E+00  0.252E+00
  17.109  0.352E+00  0.248E+00
  17.129  0.346E+00  0.244E+00
  17.149  0.339E+00  0.239E+00
  17.169  0.333E+00  0.235E+00
  17.189  0.327E+00  0.230E+00
  17.209  0.321E+00  0.226E+00
  17.229  0.314E+00  0.221E+00
  17.249  0.308E+00  0.217E+00
  17.269  0.302E+00  0.212E+00
  17.289  0.296E+00  0.208E+00
  17.309  0.290E+00  0.203E+00
  17.329  0.284E+00  0.199E+00
  17.349  0.278E+00  0.195E+00
  17.369  0.272E+00  0.191E+00
  17.389  0.267E+00  0.187E+00
  17.409  0.262E+00  0.183E+00
  17.429  0.256E+00  0.179E+00
  17.449  0.251E+00  0.175E+00
  17.469  0.246E+00  0.171E+00
  17.489  0.242E+00  0.168E+00
  17.509  0.237E+00  0.164E+00
  17.529  0.233E+00  0.161E+00
  17.549  0.229E+00  0.158E+00
  17.569  0.225E+00  0.155E+00
  17.589  0.221E+00  0.152E+00
  17.609  0.218E+00  0.149E+00
  17.629  0.215E+00  0.147E+00
  17.649  0.212E+00  0.144E+00
  17.669  0.210E+00  0.142E+00
  17.689  0.208E+00  0.141E+00
  17.709  0.207E+00  0.139E+00
  17.729  0.206E+00  0.138E+00
  17.749  0.205E+00  0.137E+00
  17.769  0.205E+00  0.136E+00
  17.789  0.205E+00  0.136E+00
  17.809  0.206E+00  0.136E+00
  17.829  0.207E+00  0.136E+00
  17.849  0.208E+00  0.136E+00
  17.869  0.210E+00  0.137E+00
  17.889  0.212E+00  0.138E+00
  17.909  0.215E+00  0.139E+00
  17.929  0.218E+00  0.140E+00
  17.949  0.221E+00  0.142E+00
  17.969  0.224E+00  0.143E+00
  17.989  0.227E+00  0.145E+00
  18.009  0.231E+00  0.146E+00
  18.029  0.234E+00  0.148E+00
  18.049  0.238E+00  0.149E+00
  18.069  0.241E+00  0.151E+00
  18.089  0.244E+00  0.152E+00
  18.109  0.247E+00  0.153E+00
  18.129  0.249E+00  0.154E+00
  18.149  0.251E+00  0.155E+00
  18.169  0.253E+00  0.155E+00
  18.189  0.255E+00  0.155E+00
  18.209  0.256E+00  0.155E+00
  18.229  0.256E+00  0.155E+00
  18.249  0.256E+00  0.154E+00
  18.269  0.255E+00  0.154E+00
  18.289  0.254E+00  0.152E+00
  18.309  0.253E+00  0.151E+00
  18.329  0.251E+00  0.149E+00
  18.349  0.248E+00  0.147E+00
  18.369  0.245E+00  0.145E+00
  18.389  0.242E+00  0.142E+00
  18.409  0.238E+00  0.140E+00
  18.429  0.234E+00  0.137E+00
  18.449  0.230E+00  0.134E+00
  18.469  0.226E+00  0.131E+00
  18.489  0.221E+00  0.127E+00
  18.509  0.216E+00  0.124E+00
  18.529  0.211E+00  0.121E+00
  18.549  0.207E+00  0.118E+00
  18.569  0.202E+00  0.114E+00
  18.589  0.197E+00  0.111E+00
  18.609  0.192E+00  0.108E+00
  18.629  0.187E+00  0.105E+00
  18.649  0.183E+00  0.102E+00
  18.669  0.179E+00  0.992E-01
  18.689  0.175E+00  0.965E-01
  18.709  0.171E+00  0.940E-01
  18.729  0.167E+00  0.916E-01
  18.749  0.164E+00  0.894E-01
  18.769  0.161E+00  0.873E-01
  18.789  0.158E+00  0.853E-01
  18.809  0.155E+00  0.835E-01
  18.829  0.153E+00  0.818E-01
  18.849  0.150E+00  0.803E-01
  18.869  0.148E+00  0.788E-01
  18.889  0.147E+00  0.775E-01
  18.909  0.145E+00  0.762E-01
  18.929  0.143E+00  0.750E-01
  18.949  0.142E+00  0.739E-01
  18.969  0.140E+00  0.728E-01
  18.989  0.139E+00  0.718E-01
  19.009  0.137E+00  0.708E-01
  19.029  0.136E+00  0.698E-01
  19.049  0.134E+00  0.688E-01
  19.069  0.133E+00  0.678E-01
  19.089  0.131E+00  0.667E-01
  19.109  0.130E+00  0.657E-01
  19.129  0.128E+00  0.646E-01
  19.149  0.126E+00  0.635E-01
  19.169  0.125E+00  0.623E-01
  19.189  0.123E+00  0.612E-01
  19.209  0.121E+00  0.600E-01
  19.229  0.119E+00  0.587E-01
  19.249  0.117E+00  0.575E-01
  19.269  0.115E+00  0.563E-01
  19.289  0.113E+00  0.550E-01
  19.309  0.111E+00  0.538E-01
  19.329  0.110E+00  0.526E-01
  19.349  0.108E+00  0.515E-01
  19.369  0.107E+00  0.504E-01
  19.389  0.105E+00  0.493E-01
  19.409  0.104E+00  0.484E-01
  19.429  0.103E+00  0.475E-01
  19.449  0.102E+00  0.467E-01
  19.469  0.102E+00  0.460E-01
  19.489  0.102E+00  0.455E-01
  19.509  0.102E+00  0.450E-01
  19.529  0.103E+00  0.447E-01
  19.549  0.103E+00  0.445E-01
  19.569  0.104E+00  0.444E-01
  19.589  0.106E+00  0.444E-01
  19.609  0.107E+00  0.445E-01
  19.629  0.109E+00  0.448E-01
  19.649  0.111E+00  0.451E-01
  19.669  0.113E+00  0.455E-01
  19.689  0.115E+00  0.460E-01
  19.709  0.117E+00  0.465E-01
  19.729  0.120E+00  0.470E-01
  19.749  0.122E+00  0.476E-01
  19.769  0.124E+00  0.481E-01
  19.789  0.126E+00  0.487E-01
  19.809  0.128E+00  0.492E-01
  19.829  0.129E+00  0.496E-01
  19.849  0.131E+00  0.500E-01
  19.869  0.132E+00  0.502E-01
  19.889  0.133E+00  0.504E-01
  19.909  0.133E+00  0.505E-01
  19.929  0.133E+00  0.505E-01
  19.949  0.133E+00  0.503E-01
  19.969  0.132E+00  0.501E-01
  19.989  0.131E+00  0.497E-01
  20.009  0.130E+00  0.492E-01
  20.029  0.128E+00  0.485E-01
  20.049  0.126E+00  0.478E-01
  20.069  0.124E+00  0.470E-01
  20.089  0.121E+00  0.460E-01
  20.109  0.118E+00  0.450E-01
  20.129  0.115E+00  0.440E-01
  20.149  0.112E+00  0.429E-01
  20.169  0.108E+00  0.417E-01
  20.189  0.105E+00  0.405E-01
  20.209  0.101E+00  0.393E-01
  20.229  0.976E-01  0.381E-01
  20.249  0.941E-01  0.370E-01
  20.269  0.906E-01  0.358E-01
  20.289  0.873E-01  0.347E-01
  20.309  0.841E-01  0.337E-01
  20.329  0.810E-01  0.327E-01
  20.349  0.782E-01  0.318E-01
  20.369  0.756E-01  0.310E-01
  20.389  0.732E-01  0.303E-01
  20.409  0.710E-01  0.296E-01
  20.429  0.692E-01  0.290E-01
  20.449  0.675E-01  0.286E-01
  20.469  0.662E-01  0.282E-01
  20.489  0.651E-01  0.279E-01
  20.509  0.642E-01  0.277E-01
  20.529  0.636E-01  0.276E-01
  20.549  0.632E-01  0.276E-01
  20.569  0.631E-01  0.277E-01
  20.589  0.631E-01  0.278E-01
  20.609  0.634E-01  0.281E-01
  20.629  0.638E-01  0.283E-01
  20.649  0.643E-01  0.287E-01
  20.669  0.650E-01  0.291E-01
  20.689  0.658E-01  0.295E-01
  20.709  0.666E-01  0.300E-01
  20.729  0.675E-01  0.305E-01
  20.749  0.685E-01  0.311E-01
  20.769  0.694E-01  0.316E-01
  20.789  0.704E-01  0.322E-01
  20.809  0.713E-01  0.328E-01
  20.829  0.722E-01  0.333E-01
  20.849  0.730E-01  0.339E-01
  20.869  0.738E-01  0.345E-01
  20.889  0.744E-01  0.350E-01
  20.909  0.749E-01  0.356E-01
  20.929  0.754E-01  0.361E-01
  20.949  0.757E-01  0.365E-01
  20.969  0.759E-01  0.370E-01
  20.989  0.760E-01  0.374E-01
  21.009  0.760E-01  0.378E-01
  21.029  0.758E-01  0.382E-01
  21.049  0.756E-01  0.385E-01
  21.069  0.752E-01  0.388E-01
  21.089  0.748E-01  0.391E-01
  21.109  0.743E-01  0.393E-01
  21.129  0.737E-01  0.395E-01
  21.149  0.730E-01  0.397E-01
  21.169  0.723E-01  0.399E-01
  21.189  0.715E-01  0.400E-01
  21.209  0.708E-01  0.402E-01
  21.229  0.699E-01  0.403E-01
  21.249  0.691E-01  0.403E-01
  21.269  0.683E-01  0.404E-01
  21.289  0.674E-01  0.404E-01
  21.309  0.666E-01  0.404E-01
  21.329  0.657E-01  0.403E-01
  21.349  0.649E-01  0.403E-01
  21.369  0.640E-01  0.402E-01
  21.389  0.632E-01  0.400E-01
  21.409  0.623E-01  0.399E-01
  21.429  0.615E-01  0.396E-01
  21.449  0.606E-01  0.394E-01
  21.469  0.597E-01  0.391E-01
  21.489  0.587E-01  0.387E-01
  21.509  0.578E-01  0.383E-01
  21.529  0.568E-01  0.379E-01
  21.549  0.558E-01  0.374E-01
  21.569  0.547E-01  0.369E-01
  21.589  0.536E-01  0.363E-01
  21.609  0.525E-01  0.357E-01
  21.629  0.514E-01  0.351E-01
  21.649  0.502E-01  0.344E-01
  21.669  0.491E-01  0.337E-01
  21.689  0.479E-01  0.331E-01
  21.709  0.467E-01  0.324E-01
  21.729  0.456E-01  0.317E-01
  21.749  0.444E-01  0.310E-01
  21.769  0.433E-01  0.304E-01
  21.789  0.422E-01  0.297E-01
  21.809  0.412E-01  0.292E-01
  21.829  0.402E-01  0.286E-01
  21.849  0.393E-01  0.281E-01
  21.869  0.384E-01  0.276E-01
  21.889  0.376E-01  0.272E-01
  21.909  0.369E-01  0.269E-01
  21.929  0.363E-01  0.266E-01
  21.949  0.358E-01  0.264E-01
  21.969  0.354E-01  0.263E-01
  21.989  0.351E-01  0.262E-01
  22.009  0.348E-01  0.262E-01
  22.029  0.347E-01  0.262E-01
  22.049  0.346E-01  0.263E-01
  22.069  0.346E-01  0.265E-01
  22.089  0.347E-01  0.267E-01
  22.109  0.349E-01  0.270E-01
  22.129  0.352E-01  0.273E-01
  22.149  0.355E-01  0.277E-01
  22.169  0.358E-01  0.280E-01
  22.189  0.362E-01  0.285E-01
  22.209  0.367E-01  0.289E-01
  22.229  0.371E-01  0.293E-01
  22.249  0.376E-01  0.298E-01
  22.269  0.381E-01  0.302E-01
  22.289  0.385E-01  0.306E-01
  22.309  0.390E-01  0.310E-01
  22.329  0.394E-01  0.314E-01
  22.349  0.397E-01  0.317E-01
  22.369  0.400E-01  0.320E-01
  22.389  0.403E-01  0.323E-01
  22.409  0.404E-01  0.324E-01
  22.429  0.405E-01  0.325E-01
  22.449  0.405E-01  0.325E-01
  22.469  0.404E-01  0.325E-01
  22.489  0.402E-01  0.323E-01
  22.509  0.399E-01  0.321E-01
  22.529  0.394E-01  0.318E-01
  22.549  0.389E-01  0.314E-01
  22.569  0.383E-01  0.309E-01
  22.589  0.376E-01  0.303E-01
  22.609  0.368E-01  0.297E-01
  22.629  0.358E-01  0.290E-01
  22.649  0.349E-01  0.282E-01
  22.669  0.338E-01  0.273E-01
  22.689  0.327E-01  0.264E-01
  22.709  0.315E-01  0.255E-01
  22.729  0.303E-01  0.245E-01
  22.749  0.290E-01  0.235E-01
  22.769  0.277E-01  0.225E-01
  22.789  0.265E-01  0.215E-01
  22.809  0.252E-01  0.205E-01
  22.829  0.239E-01  0.195E-01
  22.849  0.227E-01  0.185E-01
  22.869  0.215E-01  0.175E-01
  22.889  0.203E-01  0.166E-01
  22.909  0.192E-01  0.157E-01
  22.929  0.181E-01  0.148E-01
  22.949  0.171E-01  0.140E-01
  22.969  0.161E-01  0.133E-01
  22.989  0.152E-01  0.126E-01
  23.009  0.144E-01  0.119E-01
  23.029  0.136E-01  0.113E-01
  23.049  0.130E-01  0.108E-01
  23.069  0.123E-01  0.103E-01
  23.089  0.118E-01  0.986E-02
  23.109  0.113E-01  0.949E-02
  23.129  0.109E-01  0.918E-02
  23.149  0.106E-01  0.892E-02
  23.169  0.103E-01  0.870E-02
  23.189  0.101E-01  0.854E-02
  23.209  0.991E-02  0.842E-02
  23.229  0.979E-02  0.834E-02
  23.249  0.972E-02  0.829E-02
  23.269  0.969E-02  0.829E-02
  23.289  0.970E-02  0.831E-02
  23.309  0.974E-02  0.836E-02
  23.329  0.981E-02  0.843E-02
  23.349  0.991E-02  0.853E-02
  23.369  0.100E-01  0.864E-02
  23.389  0.102E-01  0.876E-02
  23.409  0.103E-01  0.889E-02
  23.429  0.104E-01  0.903E-02
  23.449  0.106E-01  0.916E-02
  23.469  0.108E-01  0.930E-02
  23.489  0.109E-01  0.943E-02
  23.509  0.110E-01  0.955E-02
  23.529  0.112E-01  0.966E-02
  23.549  0.113E-01  0.976E-02
  23.569  0.114E-01  0.984E-02
  23.589  0.114E-01  0.991E-02
  23.609  0.115E-01  0.995E-02
  23.629  0.115E-01  0.996E-02
  23.649  0.115E-01  0.996E-02
  23.669  0.115E-01  0.992E-02
  23.689  0.114E-01  0.986E-02
  23.709  0.113E-01  0.978E-02
  23.729  0.112E-01  0.966E-02
  23.749  0.110E-01  0.952E-02
  23.769  0.108E-01  0.935E-02
  23.789  0.106E-01  0.915E-02
  23.809  0.103E-01  0.893E-02
  23.829  0.100E-01  0.868E-02
  23.849  0.971E-02  0.841E-02
  23.869  0.937E-02  0.811E-02
  23.889  0.901E-02  0.780E-02
  23.909  0.864E-02  0.748E-02
  23.929  0.824E-02  0.714E-02
  23.949  0.784E-02  0.679E-02
  23.969  0.742E-02  0.643E-02
  23.989  0.700E-02  0.606E-02
  24.009  0.658E-02  0.570E-02
  24.029  0.616E-02  0.533E-02
  24.049  0.574E-02  0.497E-02
  24.069  0.532E-02  0.461E-02
  24.089  0.492E-02  0.426E-02
  24.109  0.452E-02  0.392E-02
  24.129  0.415E-02  0.359E-02
  24.149  0.378E-02  0.327E-02
  24.169  0.343E-02  0.297E-02
  24.189  0.310E-02  0.269E-02
  24.209  0.279E-02  0.242E-02
  24.229  0.250E-02  0.217E-02
  24.249  0.223E-02  0.193E-02
  24.269  0.198E-02  0.172E-02
  24.289  0.175E-02  0.152E-02
  24.309  0.154E-02  0.134E-02
  24.329  0.135E-02  0.117E-02
  24.349  0.118E-02  0.102E-02
  24.369  0.102E-02  0.885E-03
  24.389  0.884E-03  0.765E-03
  24.409  0.760E-03  0.658E-03
  24.429  0.650E-03  0.563E-03
  24.449  0.554E-03  0.480E-03
  24.469  0.470E-03  0.407E-03
  24.489  0.397E-03  0.343E-03
  24.509  0.333E-03  0.288E-03
  24.529  0.279E-03  0.241E-03
  24.549  0.232E-03  0.201E-03
  24.569  0.192E-03  0.166E-03
  24.589  0.158E-03  0.137E-03
  24.609  0.130E-03  0.112E-03
  24.629  0.106E-03  0.918E-04
  24.649  0.862E-04  0.746E-04
  24.669  0.697E-04  0.604E-04
  24.689  0.562E-04  0.486E-04
  24.709  0.450E-04  0.389E-04
  24.729  0.359E-04  0.310E-04
  24.749  0.285E-04  0.246E-04
  24.769  0.225E-04  0.195E-04
  24.789  0.177E-04  0.153E-04
  24.809  0.138E-04  0.120E-04
  24.829  0.108E-04  0.932E-05
  24.849  0.835E-05  0.722E-05
  24.869  0.644E-05  0.557E-05
  24.889  0.494E-05  0.428E-05
  24.909  0.378E-05  0.327E-05
  24.929  0.287E-05  0.248E-05
  24.949  0.217E-05  0.188E-05
  24.969  0.164E-05  0.142E-05
  24.989  0.123E-05  0.106E-05
  25.009  0.914E-06  0.791E-06
