# E (eV)  dos(E)    pdos(E)
  -4.265  0.745E-06  0.739E-06
  -4.245  0.101E-05  0.101E-05
  -4.225  0.137E-05  0.136E-05
  -4.205  0.185E-05  0.184E-05
  -4.185  0.249E-05  0.247E-05
  -4.165  0.332E-05  0.330E-05
  -4.145  0.442E-05  0.439E-05
  -4.125  0.586E-05  0.582E-05
  -4.105  0.773E-05  0.767E-05
  -4.085  0.102E-04  0.101E-04
  -4.065  0.133E-04  0.132E-04
  -4.045  0.173E-04  0.171E-04
  -4.025  0.224E-04  0.222E-04
  -4.005  0.289E-04  0.287E-04
  -3.985  0.371E-04  0.368E-04
  -3.965  0.475E-04  0.471E-04
  -3.945  0.604E-04  0.600E-04
  -3.925  0.766E-04  0.760E-04
  -3.905  0.967E-04  0.960E-04
  -3.885  0.122E-03  0.121E-03
  -3.865  0.152E-03  0.151E-03
  -3.845  0.190E-03  0.188E-03
  -3.825  0.235E-03  0.233E-03
  -3.805  0.291E-03  0.288E-03
  -3.785  0.358E-03  0.355E-03
  -3.765  0.438E-03  0.435E-03
  -3.745  0.535E-03  0.531E-03
  -3.725  0.650E-03  0.645E-03
  -3.705  0.786E-03  0.780E-03
  -3.685  0.947E-03  0.940E-03
  -3.665  0.114E-02  0.113E-02
  -3.645  0.136E-02  0.135E-02
  -3.625  0.162E-02  0.160E-02
  -3.605  0.192E-02  0.190E-02
  -3.585  0.226E-02  0.224E-02
  -3.565  0.266E-02  0.264E-02
  -3.545  0.311E-02  0.309E-02
  -3.525  0.363E-02  0.360E-02
  -3.505  0.422E-02  0.419E-02
  -3.485  0.489E-02  0.485E-02
  -3.465  0.563E-02  0.559E-02
  -3.445  0.647E-02  0.642E-02
  -3.425  0.740E-02  0.735E-02
  -3.405  0.844E-02  0.837E-02
  -3.385  0.958E-02  0.951E-02
  -3.365  0.108E-01  0.108E-01
  -3.345  0.122E-01  0.121E-01
  -3.325  0.137E-01  0.136E-01
  -3.305  0.154E-01  0.153E-01
  -3.285  0.171E-01  0.170E-01
  -3.265  0.191E-01  0.189E-01
  -3.245  0.211E-01  0.210E-01
  -3.225  0.233E-01  0.231E-01
  -3.205  0.257E-01  0.255E-01
  -3.185  0.281E-01  0.279E-01
  -3.165  0.308E-01  0.305E-01
  -3.145  0.335E-01  0.333E-01
  -3.125  0.364E-01  0.361E-01
  -3.105  0.394E-01  0.391E-01
  -3.085  0.426E-01  0.423E-01
  -3.065  0.459E-01  0.455E-01
  -3.045  0.492E-01  0.489E-01
  -3.025  0.527E-01  0.523E-01
  -3.005  0.563E-01  0.559E-01
  -2.985  0.599E-01  0.595E-01
  -2.965  0.637E-01  0.632E-01
  -2.945  0.675E-01  0.670E-01
  -2.925  0.713E-01  0.708E-01
  -2.905  0.752E-01  0.746E-01
  -2.885  0.791E-01  0.785E-01
  -2.865  0.830E-01  0.824E-01
  -2.845  0.870E-01  0.864E-01
  -2.825  0.909E-01  0.903E-01
  -2.805  0.949E-01  0.942E-01
  -2.785  0.988E-01  0.981E-01
  -2.765  0.103E+00  0.102E+00
  -2.745  0.107E+00  0.106E+00
  -2.725  0.110E+00  0.110E+00
  -2.705  0.114E+00  0.113E+00
  -2.685  0.118E+00  0.117E+00
  -2.665  0.122E+00  0.121E+00
  -2.645  0.125E+00  0.124E+00
  -2.625  0.129E+00  0.128E+00
  -2.605  0.132E+00  0.131E+00
  -2.585  0.136E+00  0.135E+00
  -2.565  0.139E+00  0.138E+00
  -2.545  0.142E+00  0.141E+00
  -2.525  0.145E+00  0.144E+00
  -2.505  0.149E+00  0.148E+00
  -2.485  0.152E+00  0.151E+00
  -2.465  0.155E+00  0.154E+00
  -2.445  0.158E+00  0.157E+00
  -2.425  0.161E+00  0.160E+00
  -2.405  0.164E+00  0.162E+00
  -2.385  0.166E+00  0.165E+00
  -2.365  0.169E+00  0.168E+00
  -2.345  0.172E+00  0.171E+00
  -2.325  0.174E+00  0.173E+00
  -2.305  0.177E+00  0.176E+00
  -2.285  0.180E+00  0.178E+00
  -2.265  0.182E+00  0.181E+00
  -2.245  0.185E+00  0.183E+00
  -2.225  0.187E+00  0.186E+00
  -2.205  0.189E+00  0.188E+00
  -2.185  0.192E+00  0.190E+00
  -2.165  0.194E+00  0.193E+00
  -2.145  0.196E+00  0.195E+00
  -2.125  0.199E+00  0.197E+00
  -2.105  0.201E+00  0.199E+00
  -2.085  0.203E+00  0.202E+00
  -2.065  0.205E+00  0.204E+00
  -2.045  0.208E+00  0.206E+00
  -2.025  0.210E+00  0.208E+00
  -2.005  0.212E+00  0.210E+00
  -1.985  0.214E+00  0.212E+00
  -1.965  0.216E+00  0.214E+00
  -1.945  0.218E+00  0.216E+00
  -1.925  0.220E+00  0.218E+00
  -1.905  0.222E+00  0.220E+00
  -1.885  0.224E+00  0.222E+00
  -1.865  0.226E+00  0.224E+00
  -1.845  0.228E+00  0.226E+00
  -1.825  0.230E+00  0.228E+00
  -1.805  0.232E+00  0.230E+00
  -1.785  0.234E+00  0.232E+00
  -1.765  0.236E+00  0.234E+00
  -1.745  0.238E+00  0.235E+00
  -1.725  0.240E+00  0.237E+00
  -1.705  0.241E+00  0.239E+00
  -1.685  0.243E+00  0.241E+00
  -1.665  0.245E+00  0.243E+00
  -1.645  0.247E+00  0.244E+00
  -1.625  0.249E+00  0.246E+00
  -1.605  0.251E+00  0.248E+00
  -1.585  0.252E+00  0.250E+00
  -1.565  0.254E+00  0.251E+00
  -1.545  0.256E+00  0.253E+00
  -1.525  0.258E+00  0.255E+00
  -1.505  0.259E+00  0.256E+00
  -1.485  0.261E+00  0.258E+00
  -1.465  0.263E+00  0.260E+00
  -1.445  0.265E+00  0.261E+00
  -1.425  0.266E+00  0.263E+00
  -1.405  0.268E+00  0.265E+00
  -1.385  0.270E+00  0.266E+00
  -1.365  0.272E+00  0.268E+00
  -1.345  0.273E+00  0.270E+00
  -1.325  0.275E+00  0.271E+00
  -1.305  0.277E+00  0.273E+00
  -1.285  0.278E+00  0.275E+00
  -1.265  0.280E+00  0.276E+00
  -1.245  0.282E+00  0.278E+00
  -1.225  0.283E+00  0.280E+00
  -1.205  0.285E+00  0.281E+00
  -1.185  0.287E+00  0.283E+00
  -1.165  0.288E+00  0.284E+00
  -1.145  0.290E+00  0.286E+00
  -1.125  0.292E+00  0.287E+00
  -1.105  0.293E+00  0.289E+00
  -1.085  0.295E+00  0.291E+00
  -1.065  0.297E+00  0.292E+00
  -1.045  0.298E+00  0.294E+00
  -1.025  0.300E+00  0.295E+00
  -1.005  0.301E+00  0.297E+00
  -0.985  0.303E+00  0.298E+00
  -0.965  0.305E+00  0.300E+00
  -0.945  0.306E+00  0.301E+00
  -0.925  0.308E+00  0.303E+00
  -0.905  0.309E+00  0.304E+00
  -0.885  0.311E+00  0.306E+00
  -0.865  0.313E+00  0.307E+00
  -0.845  0.314E+00  0.309E+00
  -0.825  0.316E+00  0.311E+00
  -0.805  0.318E+00  0.312E+00
  -0.785  0.319E+00  0.314E+00
  -0.765  0.321E+00  0.315E+00
  -0.745  0.323E+00  0.317E+00
  -0.725  0.325E+00  0.319E+00
  -0.705  0.326E+00  0.320E+00
  -0.685  0.328E+00  0.322E+00
  -0.665  0.330E+00  0.323E+00
  -0.645  0.331E+00  0.325E+00
  -0.625  0.333E+00  0.326E+00
  -0.605  0.334E+00  0.328E+00
  -0.585  0.336E+00  0.330E+00
  -0.565  0.338E+00  0.331E+00
  -0.545  0.339E+00  0.333E+00
  -0.525  0.341E+00  0.334E+00
  -0.505  0.343E+00  0.335E+00
  -0.485  0.344E+00  0.337E+00
  -0.465  0.346E+00  0.338E+00
  -0.445  0.347E+00  0.340E+00
  -0.425  0.349E+00  0.341E+00
  -0.405  0.351E+00  0.343E+00
  -0.385  0.352E+00  0.344E+00
  -0.365  0.354E+00  0.346E+00
  -0.345  0.356E+00  0.348E+00
  -0.325  0.358E+00  0.349E+00
  -0.305  0.359E+00  0.351E+00
  -0.285  0.361E+00  0.352E+00
  -0.265  0.363E+00  0.354E+00
  -0.245  0.365E+00  0.356E+00
  -0.225  0.367E+00  0.358E+00
  -0.205  0.369E+00  0.360E+00
  -0.185  0.371E+00  0.361E+00
  -0.165  0.373E+00  0.363E+00
  -0.145  0.375E+00  0.365E+00
  -0.125  0.378E+00  0.367E+00
  -0.105  0.380E+00  0.369E+00
  -0.085  0.382E+00  0.371E+00
  -0.065  0.384E+00  0.372E+00
  -0.045  0.386E+00  0.374E+00
  -0.025  0.388E+00  0.376E+00
  -0.005  0.390E+00  0.378E+00
   0.015  0.393E+00  0.379E+00
   0.035  0.395E+00  0.381E+00
   0.055  0.397E+00  0.383E+00
   0.075  0.399E+00  0.385E+00
   0.095  0.401E+00  0.386E+00
   0.115  0.404E+00  0.388E+00
   0.135  0.406E+00  0.390E+00
   0.155  0.408E+00  0.392E+00
   0.175  0.411E+00  0.393E+00
   0.195  0.413E+00  0.395E+00
   0.215  0.416E+00  0.397E+00
   0.235  0.418E+00  0.399E+00
   0.255  0.421E+00  0.401E+00
   0.275  0.424E+00  0.404E+00
   0.295  0.427E+00  0.406E+00
   0.315  0.431E+00  0.408E+00
   0.335  0.434E+00  0.411E+00
   0.355  0.438E+00  0.413E+00
   0.375  0.441E+00  0.416E+00
   0.395  0.445E+00  0.419E+00
   0.415  0.449E+00  0.422E+00
   0.435  0.453E+00  0.425E+00
   0.455  0.457E+00  0.428E+00
   0.475  0.461E+00  0.431E+00
   0.495  0.465E+00  0.434E+00
   0.515  0.469E+00  0.437E+00
   0.535  0.473E+00  0.440E+00
   0.555  0.477E+00  0.443E+00
   0.575  0.481E+00  0.445E+00
   0.595  0.484E+00  0.448E+00
   0.615  0.488E+00  0.451E+00
   0.635  0.491E+00  0.453E+00
   0.655  0.494E+00  0.455E+00
   0.675  0.498E+00  0.458E+00
   0.695  0.500E+00  0.460E+00
   0.715  0.503E+00  0.461E+00
   0.735  0.505E+00  0.463E+00
   0.755  0.507E+00  0.465E+00
   0.775  0.509E+00  0.466E+00
   0.795  0.511E+00  0.467E+00
   0.815  0.513E+00  0.468E+00
   0.835  0.514E+00  0.469E+00
   0.855  0.515E+00  0.470E+00
   0.875  0.516E+00  0.470E+00
   0.895  0.516E+00  0.471E+00
   0.915  0.517E+00  0.471E+00
   0.935  0.517E+00  0.471E+00
   0.955  0.517E+00  0.471E+00
   0.975  0.517E+00  0.471E+00
   0.995  0.517E+00  0.471E+00
   1.015  0.517E+00  0.471E+00
   1.035  0.516E+00  0.470E+00
   1.055  0.515E+00  0.470E+00
   1.075  0.515E+00  0.469E+00
   1.095  0.513E+00  0.468E+00
   1.115  0.512E+00  0.467E+00
   1.135  0.511E+00  0.466E+00
   1.155  0.509E+00  0.465E+00
   1.175  0.507E+00  0.463E+00
   1.195  0.505E+00  0.461E+00
   1.215  0.502E+00  0.459E+00
   1.235  0.499E+00  0.457E+00
   1.255  0.496E+00  0.454E+00
   1.275  0.493E+00  0.451E+00
   1.295  0.489E+00  0.448E+00
   1.315  0.486E+00  0.444E+00
   1.335  0.482E+00  0.441E+00
   1.355  0.477E+00  0.437E+00
   1.375  0.473E+00  0.432E+00
   1.395  0.468E+00  0.428E+00
   1.415  0.463E+00  0.423E+00
   1.435  0.458E+00  0.419E+00
   1.455  0.453E+00  0.414E+00
   1.475  0.448E+00  0.409E+00
   1.495  0.443E+00  0.404E+00
   1.515  0.438E+00  0.399E+00
   1.535  0.433E+00  0.394E+00
   1.555  0.428E+00  0.390E+00
   1.575  0.424E+00  0.385E+00
   1.595  0.419E+00  0.380E+00
   1.615  0.415E+00  0.376E+00
   1.635  0.410E+00  0.371E+00
   1.655  0.406E+00  0.367E+00
   1.675  0.402E+00  0.363E+00
   1.695  0.398E+00  0.359E+00
   1.715  0.395E+00  0.355E+00
   1.735  0.391E+00  0.351E+00
   1.755  0.388E+00  0.347E+00
   1.775  0.384E+00  0.344E+00
   1.795  0.381E+00  0.340E+00
   1.815  0.378E+00  0.336E+00
   1.835  0.374E+00  0.333E+00
   1.855  0.371E+00  0.329E+00
   1.875  0.368E+00  0.325E+00
   1.895  0.364E+00  0.322E+00
   1.915  0.360E+00  0.318E+00
   1.935  0.356E+00  0.313E+00
   1.955  0.352E+00  0.309E+00
   1.975  0.348E+00  0.305E+00
   1.995  0.344E+00  0.300E+00
   2.015  0.339E+00  0.295E+00
   2.035  0.335E+00  0.290E+00
   2.055  0.330E+00  0.285E+00
   2.075  0.325E+00  0.280E+00
   2.095  0.319E+00  0.274E+00
   2.115  0.314E+00  0.269E+00
   2.135  0.309E+00  0.263E+00
   2.155  0.303E+00  0.258E+00
   2.175  0.298E+00  0.252E+00
   2.195  0.292E+00  0.246E+00
   2.215  0.287E+00  0.241E+00
   2.235  0.282E+00  0.235E+00
   2.255  0.277E+00  0.230E+00
   2.275  0.272E+00  0.224E+00
   2.295  0.267E+00  0.219E+00
   2.315  0.263E+00  0.214E+00
   2.335  0.258E+00  0.210E+00
   2.355  0.254E+00  0.205E+00
   2.375  0.250E+00  0.201E+00
   2.395  0.247E+00  0.196E+00
   2.415  0.243E+00  0.192E+00
   2.435  0.240E+00  0.188E+00
   2.455  0.236E+00  0.185E+00
   2.475  0.233E+00  0.181E+00
   2.495  0.230E+00  0.178E+00
   2.515  0.227E+00  0.174E+00
   2.535  0.224E+00  0.171E+00
   2.555  0.221E+00  0.168E+00
   2.575  0.218E+00  0.164E+00
   2.595  0.215E+00  0.161E+00
   2.615  0.212E+00  0.158E+00
   2.635  0.208E+00  0.154E+00
   2.655  0.205E+00  0.151E+00
   2.675  0.201E+00  0.147E+00
   2.695  0.198E+00  0.143E+00
   2.715  0.194E+00  0.140E+00
   2.735  0.190E+00  0.136E+00
   2.755  0.186E+00  0.132E+00
   2.775  0.182E+00  0.128E+00
   2.795  0.178E+00  0.124E+00
   2.815  0.174E+00  0.121E+00
   2.835  0.170E+00  0.117E+00
   2.855  0.166E+00  0.113E+00
   2.875  0.162E+00  0.109E+00
   2.895  0.159E+00  0.106E+00
   2.915  0.155E+00  0.102E+00
   2.935  0.152E+00  0.992E-01
   2.955  0.149E+00  0.962E-01
   2.975  0.147E+00  0.935E-01
   2.995  0.145E+00  0.910E-01
   3.015  0.143E+00  0.888E-01
   3.035  0.142E+00  0.869E-01
   3.055  0.141E+00  0.853E-01
   3.075  0.140E+00  0.840E-01
   3.095  0.140E+00  0.831E-01
   3.115  0.140E+00  0.825E-01
   3.135  0.141E+00  0.822E-01
   3.155  0.142E+00  0.823E-01
   3.175  0.144E+00  0.828E-01
   3.195  0.146E+00  0.836E-01
   3.215  0.149E+00  0.848E-01
   3.235  0.151E+00  0.863E-01
   3.255  0.155E+00  0.881E-01
   3.275  0.158E+00  0.903E-01
   3.295  0.162E+00  0.929E-01
   3.315  0.166E+00  0.958E-01
   3.335  0.171E+00  0.991E-01
   3.355  0.176E+00  0.103E+00
   3.375  0.182E+00  0.107E+00
   3.395  0.188E+00  0.111E+00
   3.415  0.194E+00  0.116E+00
   3.435  0.201E+00  0.122E+00
   3.455  0.208E+00  0.127E+00
   3.475  0.216E+00  0.134E+00
   3.495  0.224E+00  0.141E+00
   3.515  0.233E+00  0.148E+00
   3.535  0.242E+00  0.156E+00
   3.555  0.252E+00  0.164E+00
   3.575  0.263E+00  0.173E+00
   3.595  0.274E+00  0.182E+00
   3.615  0.286E+00  0.192E+00
   3.635  0.298E+00  0.202E+00
   3.655  0.311E+00  0.213E+00
   3.675  0.325E+00  0.224E+00
   3.695  0.338E+00  0.236E+00
   3.715  0.353E+00  0.248E+00
   3.735  0.367E+00  0.260E+00
   3.755  0.382E+00  0.273E+00
   3.775  0.397E+00  0.285E+00
   3.795  0.412E+00  0.298E+00
   3.815  0.427E+00  0.310E+00
   3.835  0.443E+00  0.323E+00
   3.855  0.457E+00  0.335E+00
   3.875  0.472E+00  0.347E+00
   3.895  0.486E+00  0.359E+00
   3.915  0.500E+00  0.370E+00
   3.935  0.513E+00  0.381E+00
   3.955  0.525E+00  0.391E+00
   3.975  0.537E+00  0.401E+00
   3.995  0.548E+00  0.410E+00
   4.015  0.558E+00  0.418E+00
   4.035  0.567E+00  0.425E+00
   4.055  0.575E+00  0.432E+00
   4.075  0.582E+00  0.438E+00
   4.095  0.588E+00  0.443E+00
   4.115  0.594E+00  0.447E+00
   4.135  0.598E+00  0.450E+00
   4.155  0.601E+00  0.453E+00
   4.175  0.604E+00  0.455E+00
   4.195  0.606E+00  0.456E+00
   4.215  0.606E+00  0.456E+00
   4.235  0.607E+00  0.456E+00
   4.255  0.606E+00  0.456E+00
   4.275  0.605E+00  0.454E+00
   4.295  0.603E+00  0.453E+00
   4.315  0.601E+00  0.451E+00
   4.335  0.599E+00  0.448E+00
   4.355  0.596E+00  0.446E+00
   4.375  0.593E+00  0.443E+00
   4.395  0.589E+00  0.440E+00
   4.415  0.586E+00  0.437E+00
   4.435  0.582E+00  0.433E+00
   4.455  0.578E+00  0.430E+00
   4.475  0.574E+00  0.427E+00
   4.495  0.570E+00  0.423E+00
   4.515  0.566E+00  0.420E+00
   4.535  0.562E+00  0.416E+00
   4.555  0.558E+00  0.413E+00
   4.575  0.554E+00  0.409E+00
   4.595  0.550E+00  0.406E+00
   4.615  0.546E+00  0.402E+00
   4.635  0.542E+00  0.399E+00
   4.655  0.538E+00  0.396E+00
   4.675  0.534E+00  0.392E+00
   4.695  0.529E+00  0.389E+00
   4.715  0.525E+00  0.386E+00
   4.735  0.521E+00  0.383E+00
   4.755  0.517E+00  0.380E+00
   4.775  0.513E+00  0.376E+00
   4.795  0.508E+00  0.373E+00
   4.815  0.504E+00  0.370E+00
   4.835  0.500E+00  0.367E+00
   4.855  0.496E+00  0.364E+00
   4.875  0.492E+00  0.361E+00
   4.895  0.488E+00  0.358E+00
   4.915  0.484E+00  0.355E+00
   4.935  0.480E+00  0.353E+00
   4.955  0.476E+00  0.350E+00
   4.975  0.473E+00  0.348E+00
   4.995  0.469E+00  0.346E+00
   5.015  0.466E+00  0.344E+00
   5.035  0.463E+00  0.342E+00
   5.055  0.461E+00  0.340E+00
   5.075  0.458E+00  0.339E+00
   5.095  0.456E+00  0.337E+00
   5.115  0.454E+00  0.336E+00
   5.135  0.452E+00  0.335E+00
   5.155  0.450E+00  0.334E+00
   5.175  0.448E+00  0.333E+00
   5.195  0.447E+00  0.332E+00
   5.215  0.445E+00  0.331E+00
   5.235  0.444E+00  0.330E+00
   5.255  0.443E+00  0.330E+00
   5.275  0.441E+00  0.329E+00
   5.295  0.440E+00  0.328E+00
   5.315  0.439E+00  0.327E+00
   5.335  0.437E+00  0.326E+00
   5.355  0.435E+00  0.325E+00
   5.375  0.434E+00  0.324E+00
   5.395  0.432E+00  0.323E+00
   5.415  0.430E+00  0.322E+00
   5.435  0.428E+00  0.320E+00
   5.455  0.425E+00  0.319E+00
   5.475  0.423E+00  0.317E+00
   5.495  0.421E+00  0.315E+00
   5.515  0.418E+00  0.314E+00
   5.535  0.416E+00  0.312E+00
   5.555  0.413E+00  0.310E+00
   5.575  0.411E+00  0.308E+00
   5.595  0.409E+00  0.307E+00
   5.615  0.406E+00  0.305E+00
   5.635  0.404E+00  0.303E+00
   5.655  0.402E+00  0.302E+00
   5.675  0.400E+00  0.300E+00
   5.695  0.399E+00  0.299E+00
   5.715  0.397E+00  0.297E+00
   5.735  0.396E+00  0.296E+00
   5.755  0.394E+00  0.295E+00
   5.775  0.394E+00  0.294E+00
   5.795  0.393E+00  0.294E+00
   5.815  0.392E+00  0.293E+00
   5.835  0.392E+00  0.293E+00
   5.855  0.392E+00  0.292E+00
   5.875  0.392E+00  0.292E+00
   5.895  0.393E+00  0.292E+00
   5.915  0.393E+00  0.292E+00
   5.935  0.394E+00  0.293E+00
   5.955  0.395E+00  0.293E+00
   5.975  0.397E+00  0.294E+00
   5.995  0.398E+00  0.294E+00
   6.015  0.400E+00  0.295E+00
   6.035  0.402E+00  0.296E+00
   6.055  0.404E+00  0.298E+00
   6.075  0.406E+00  0.299E+00
   6.095  0.409E+00  0.301E+00
   6.115  0.412E+00  0.302E+00
   6.135  0.415E+00  0.304E+00
   6.155  0.418E+00  0.307E+00
   6.175  0.422E+00  0.309E+00
   6.195  0.425E+00  0.311E+00
   6.215  0.429E+00  0.314E+00
   6.235  0.433E+00  0.317E+00
   6.255  0.438E+00  0.320E+00
   6.275  0.442E+00  0.323E+00
   6.295  0.447E+00  0.326E+00
   6.315  0.452E+00  0.330E+00
   6.335  0.457E+00  0.333E+00
   6.355  0.462E+00  0.337E+00
   6.375  0.467E+00  0.341E+00
   6.395  0.472E+00  0.344E+00
   6.415  0.477E+00  0.348E+00
   6.435  0.482E+00  0.352E+00
   6.455  0.487E+00  0.356E+00
   6.475  0.492E+00  0.359E+00
   6.495  0.496E+00  0.363E+00
   6.515  0.501E+00  0.367E+00
   6.535  0.506E+00  0.370E+00
   6.555  0.511E+00  0.374E+00
   6.575  0.515E+00  0.377E+00
   6.595  0.520E+00  0.381E+00
   6.615  0.524E+00  0.384E+00
   6.635  0.529E+00  0.388E+00
   6.655  0.533E+00  0.391E+00
   6.675  0.538E+00  0.395E+00
   6.695  0.542E+00  0.398E+00
   6.715  0.547E+00  0.401E+00
   6.735  0.552E+00  0.404E+00
   6.755  0.556E+00  0.408E+00
   6.775  0.561E+00  0.411E+00
   6.795  0.566E+00  0.414E+00
   6.815  0.571E+00  0.418E+00
   6.835  0.576E+00  0.421E+00
   6.855  0.581E+00  0.424E+00
   6.875  0.586E+00  0.427E+00
   6.895  0.591E+00  0.430E+00
   6.915  0.596E+00  0.433E+00
   6.935  0.601E+00  0.436E+00
   6.955  0.606E+00  0.439E+00
   6.975  0.610E+00  0.441E+00
   6.995  0.615E+00  0.444E+00
   7.015  0.619E+00  0.446E+00
   7.035  0.623E+00  0.447E+00
   7.055  0.626E+00  0.449E+00
   7.075  0.629E+00  0.450E+00
   7.095  0.632E+00  0.451E+00
   7.115  0.634E+00  0.451E+00
   7.135  0.636E+00  0.451E+00
   7.155  0.637E+00  0.451E+00
   7.175  0.638E+00  0.450E+00
   7.195  0.638E+00  0.449E+00
   7.215  0.637E+00  0.447E+00
   7.235  0.637E+00  0.445E+00
   7.255  0.635E+00  0.443E+00
   7.275  0.633E+00  0.440E+00
   7.295  0.631E+00  0.437E+00
   7.315  0.629E+00  0.434E+00
   7.335  0.626E+00  0.431E+00
   7.355  0.623E+00  0.427E+00
   7.375  0.619E+00  0.423E+00
   7.395  0.616E+00  0.419E+00
   7.415  0.612E+00  0.415E+00
   7.435  0.609E+00  0.411E+00
   7.455  0.605E+00  0.407E+00
   7.475  0.602E+00  0.403E+00
   7.495  0.599E+00  0.399E+00
   7.515  0.596E+00  0.395E+00
   7.535  0.593E+00  0.391E+00
   7.555  0.590E+00  0.387E+00
   7.575  0.588E+00  0.384E+00
   7.595  0.586E+00  0.380E+00
   7.615  0.584E+00  0.377E+00
   7.635  0.582E+00  0.374E+00
   7.655  0.581E+00  0.371E+00
   7.675  0.580E+00  0.368E+00
   7.695  0.579E+00  0.366E+00
   7.715  0.578E+00  0.363E+00
   7.735  0.578E+00  0.361E+00
   7.755  0.578E+00  0.358E+00
   7.775  0.577E+00  0.356E+00
   7.795  0.577E+00  0.354E+00
   7.815  0.577E+00  0.352E+00
   7.835  0.577E+00  0.350E+00
   7.855  0.576E+00  0.348E+00
   7.875  0.576E+00  0.346E+00
   7.895  0.575E+00  0.343E+00
   7.915  0.574E+00  0.341E+00
   7.935  0.573E+00  0.339E+00
   7.955  0.572E+00  0.337E+00
   7.975  0.571E+00  0.334E+00
   7.995  0.569E+00  0.331E+00
   8.015  0.567E+00  0.329E+00
   8.035  0.565E+00  0.326E+00
   8.055  0.563E+00  0.323E+00
   8.075  0.560E+00  0.320E+00
   8.095  0.558E+00  0.317E+00
   8.115  0.555E+00  0.314E+00
   8.135  0.552E+00  0.311E+00
   8.155  0.548E+00  0.308E+00
   8.175  0.545E+00  0.305E+00
   8.195  0.542E+00  0.302E+00
   8.215  0.539E+00  0.298E+00
   8.235  0.535E+00  0.295E+00
   8.255  0.532E+00  0.292E+00
   8.275  0.529E+00  0.289E+00
   8.295  0.526E+00  0.286E+00
   8.315  0.524E+00  0.284E+00
   8.335  0.521E+00  0.281E+00
   8.355  0.519E+00  0.279E+00
   8.375  0.517E+00  0.276E+00
   8.395  0.515E+00  0.274E+00
   8.415  0.514E+00  0.272E+00
   8.435  0.513E+00  0.270E+00
   8.455  0.512E+00  0.269E+00
   8.475  0.512E+00  0.267E+00
   8.495  0.511E+00  0.266E+00
   8.515  0.511E+00  0.265E+00
   8.535  0.511E+00  0.265E+00
   8.555  0.512E+00  0.264E+00
   8.575  0.512E+00  0.263E+00
   8.595  0.513E+00  0.263E+00
   8.615  0.513E+00  0.263E+00
   8.635  0.514E+00  0.263E+00
   8.655  0.515E+00  0.263E+00
   8.675  0.516E+00  0.263E+00
   8.695  0.517E+00  0.263E+00
   8.715  0.517E+00  0.264E+00
   8.735  0.518E+00  0.264E+00
   8.755  0.519E+00  0.265E+00
   8.775  0.519E+00  0.265E+00
   8.795  0.520E+00  0.266E+00
   8.815  0.520E+00  0.266E+00
   8.835  0.520E+00  0.267E+00
   8.855  0.521E+00  0.268E+00
   8.875  0.521E+00  0.269E+00
   8.895  0.521E+00  0.269E+00
   8.915  0.521E+00  0.270E+00
   8.935  0.521E+00  0.271E+00
   8.955  0.522E+00  0.272E+00
   8.975  0.522E+00  0.274E+00
   8.995  0.522E+00  0.275E+00
   9.015  0.523E+00  0.276E+00
   9.035  0.524E+00  0.278E+00
   9.055  0.525E+00  0.279E+00
   9.075  0.526E+00  0.281E+00
   9.095  0.527E+00  0.283E+00
   9.115  0.529E+00  0.285E+00
   9.135  0.531E+00  0.287E+00
   9.155  0.533E+00  0.289E+00
   9.175  0.535E+00  0.292E+00
   9.195  0.538E+00  0.294E+00
   9.215  0.541E+00  0.297E+00
   9.235  0.544E+00  0.300E+00
   9.255  0.547E+00  0.302E+00
   9.275  0.550E+00  0.305E+00
   9.295  0.554E+00  0.308E+00
   9.315  0.557E+00  0.311E+00
   9.335  0.561E+00  0.314E+00
   9.355  0.565E+00  0.317E+00
   9.375  0.568E+00  0.320E+00
   9.395  0.572E+00  0.323E+00
   9.415  0.575E+00  0.325E+00
   9.435  0.579E+00  0.328E+00
   9.455  0.582E+00  0.331E+00
   9.475  0.585E+00  0.333E+00
   9.495  0.588E+00  0.336E+00
   9.515  0.591E+00  0.338E+00
   9.535  0.593E+00  0.340E+00
   9.555  0.595E+00  0.342E+00
   9.575  0.598E+00  0.344E+00
   9.595  0.599E+00  0.346E+00
   9.615  0.601E+00  0.347E+00
   9.635  0.603E+00  0.349E+00
   9.655  0.604E+00  0.350E+00
   9.675  0.606E+00  0.352E+00
   9.695  0.607E+00  0.353E+00
   9.715  0.608E+00  0.354E+00
   9.735  0.609E+00  0.356E+00
   9.755  0.610E+00  0.357E+00
   9.775  0.611E+00  0.358E+00
   9.795  0.612E+00  0.359E+00
   9.815  0.614E+00  0.361E+00
   9.835  0.615E+00  0.362E+00
   9.855  0.616E+00  0.363E+00
   9.875  0.618E+00  0.365E+00
   9.895  0.619E+00  0.366E+00
   9.915  0.621E+00  0.368E+00
   9.935  0.622E+00  0.369E+00
   9.955  0.624E+00  0.371E+00
   9.975  0.626E+00  0.373E+00
   9.995  0.628E+00  0.374E+00
  10.015  0.630E+00  0.376E+00
  10.035  0.632E+00  0.378E+00
  10.055  0.633E+00  0.380E+00
  10.075  0.635E+00  0.381E+00
  10.095  0.637E+00  0.383E+00
  10.115  0.638E+00  0.385E+00
  10.135  0.640E+00  0.386E+00
  10.155  0.641E+00  0.388E+00
  10.175  0.642E+00  0.389E+00
  10.195  0.643E+00  0.390E+00
  10.215  0.644E+00  0.392E+00
  10.235  0.644E+00  0.393E+00
  10.255  0.645E+00  0.394E+00
  10.275  0.645E+00  0.395E+00
  10.295  0.644E+00  0.395E+00
  10.315  0.644E+00  0.396E+00
  10.335  0.644E+00  0.397E+00
  10.355  0.643E+00  0.398E+00
  10.375  0.642E+00  0.398E+00
  10.395  0.642E+00  0.399E+00
  10.415  0.641E+00  0.399E+00
  10.435  0.640E+00  0.400E+00
  10.455  0.639E+00  0.401E+00
  10.475  0.638E+00  0.401E+00
  10.495  0.638E+00  0.402E+00
  10.515  0.637E+00  0.403E+00
  10.535  0.637E+00  0.404E+00
  10.555  0.637E+00  0.405E+00
  10.575  0.637E+00  0.406E+00
  10.595  0.638E+00  0.408E+00
  10.615  0.638E+00  0.410E+00
  10.635  0.639E+00  0.411E+00
  10.655  0.641E+00  0.413E+00
  10.675  0.642E+00  0.415E+00
  10.695  0.644E+00  0.417E+00
  10.715  0.646E+00  0.420E+00
  10.735  0.648E+00  0.422E+00
  10.755  0.650E+00  0.425E+00
  10.775  0.652E+00  0.427E+00
  10.795  0.655E+00  0.429E+00
  10.815  0.657E+00  0.432E+00
  10.835  0.659E+00  0.434E+00
  10.855  0.662E+00  0.436E+00
  10.875  0.664E+00  0.439E+00
  10.895  0.666E+00  0.440E+00
  10.915  0.667E+00  0.442E+00
  10.935  0.669E+00  0.444E+00
  10.955  0.670E+00  0.445E+00
  10.975  0.670E+00  0.446E+00
  10.995  0.670E+00  0.446E+00
  11.015  0.670E+00  0.447E+00
  11.035  0.670E+00  0.447E+00
  11.055  0.668E+00  0.446E+00
  11.075  0.667E+00  0.446E+00
  11.095  0.665E+00  0.445E+00
  11.115  0.662E+00  0.443E+00
  11.135  0.659E+00  0.442E+00
  11.155  0.656E+00  0.440E+00
  11.175  0.652E+00  0.438E+00
  11.195  0.648E+00  0.435E+00
  11.215  0.643E+00  0.433E+00
  11.235  0.639E+00  0.430E+00
  11.255  0.634E+00  0.427E+00
  11.275  0.629E+00  0.424E+00
  11.295  0.624E+00  0.422E+00
  11.315  0.619E+00  0.419E+00
  11.335  0.615E+00  0.416E+00
  11.355  0.610E+00  0.414E+00
  11.375  0.606E+00  0.411E+00
  11.395  0.602E+00  0.409E+00
  11.415  0.598E+00  0.407E+00
  11.435  0.595E+00  0.406E+00
  11.455  0.593E+00  0.405E+00
  11.475  0.591E+00  0.404E+00
  11.495  0.590E+00  0.404E+00
  11.515  0.589E+00  0.404E+00
  11.535  0.589E+00  0.404E+00
  11.555  0.590E+00  0.405E+00
  11.575  0.592E+00  0.407E+00
  11.595  0.594E+00  0.408E+00
  11.615  0.596E+00  0.411E+00
  11.635  0.600E+00  0.413E+00
  11.655  0.604E+00  0.416E+00
  11.675  0.608E+00  0.419E+00
  11.695  0.613E+00  0.423E+00
  11.715  0.619E+00  0.426E+00
  11.735  0.624E+00  0.430E+00
  11.755  0.630E+00  0.434E+00
  11.775  0.636E+00  0.438E+00
  11.795  0.642E+00  0.442E+00
  11.815  0.649E+00  0.447E+00
  11.835  0.655E+00  0.450E+00
  11.855  0.661E+00  0.454E+00
  11.875  0.667E+00  0.458E+00
  11.895  0.672E+00  0.462E+00
  11.915  0.678E+00  0.465E+00
  11.935  0.683E+00  0.468E+00
  11.955  0.688E+00  0.471E+00
  11.975  0.692E+00  0.474E+00
  11.995  0.696E+00  0.476E+00
  12.015  0.700E+00  0.479E+00
  12.035  0.704E+00  0.481E+00
  12.055  0.708E+00  0.483E+00
  12.075  0.711E+00  0.485E+00
  12.095  0.714E+00  0.487E+00
  12.115  0.718E+00  0.489E+00
  12.135  0.721E+00  0.491E+00
  12.155  0.724E+00  0.493E+00
  12.175  0.728E+00  0.495E+00
  12.195  0.732E+00  0.497E+00
  12.215  0.736E+00  0.500E+00
  12.235  0.741E+00  0.503E+00
  12.255  0.746E+00  0.506E+00
  12.275  0.752E+00  0.510E+00
  12.295  0.758E+00  0.514E+00
  12.315  0.764E+00  0.518E+00
  12.335  0.771E+00  0.523E+00
  12.355  0.779E+00  0.528E+00
  12.375  0.787E+00  0.534E+00
  12.395  0.795E+00  0.540E+00
  12.415  0.804E+00  0.546E+00
  12.435  0.813E+00  0.552E+00
  12.455  0.823E+00  0.558E+00
  12.475  0.832E+00  0.565E+00
  12.495  0.841E+00  0.572E+00
  12.515  0.851E+00  0.578E+00
  12.535  0.860E+00  0.585E+00
  12.555  0.869E+00  0.591E+00
  12.575  0.877E+00  0.597E+00
  12.595  0.885E+00  0.603E+00
  12.615  0.893E+00  0.608E+00
  12.635  0.900E+00  0.613E+00
  12.655  0.905E+00  0.617E+00
  12.675  0.911E+00  0.621E+00
  12.695  0.915E+00  0.624E+00
  12.715  0.918E+00  0.627E+00
  12.735  0.921E+00  0.629E+00
  12.755  0.922E+00  0.630E+00
  12.775  0.922E+00  0.631E+00
  12.795  0.922E+00  0.631E+00
  12.815  0.920E+00  0.630E+00
  12.835  0.918E+00  0.629E+00
  12.855  0.915E+00  0.627E+00
  12.875  0.911E+00  0.624E+00
  12.895  0.907E+00  0.621E+00
  12.915  0.902E+00  0.618E+00
  12.935  0.896E+00  0.614E+00
  12.955  0.890E+00  0.610E+00
  12.975  0.884E+00  0.606E+00
  12.995  0.877E+00  0.602E+00
  13.015  0.870E+00  0.597E+00
  13.035  0.863E+00  0.593E+00
  13.055  0.856E+00  0.588E+00
  13.075  0.849E+00  0.583E+00
  13.095  0.842E+00  0.579E+00
  13.115  0.836E+00  0.574E+00
  13.135  0.829E+00  0.570E+00
  13.155  0.823E+00  0.566E+00
  13.175  0.816E+00  0.561E+00
  13.195  0.810E+00  0.557E+00
  13.215  0.804E+00  0.553E+00
  13.235  0.798E+00  0.549E+00
  13.255  0.792E+00  0.546E+00
  13.275  0.786E+00  0.542E+00
  13.295  0.780E+00  0.538E+00
  13.315  0.774E+00  0.534E+00
  13.335  0.767E+00  0.530E+00
  13.355  0.761E+00  0.526E+00
  13.375  0.754E+00  0.522E+00
  13.395  0.747E+00  0.517E+00
  13.415  0.739E+00  0.513E+00
  13.435  0.732E+00  0.508E+00
  13.455  0.723E+00  0.502E+00
  13.475  0.715E+00  0.497E+00
  13.495  0.706E+00  0.491E+00
  13.515  0.696E+00  0.485E+00
  13.535  0.686E+00  0.479E+00
  13.555  0.676E+00  0.472E+00
  13.575  0.665E+00  0.465E+00
  13.595  0.654E+00  0.458E+00
  13.615  0.643E+00  0.451E+00
  13.635  0.631E+00  0.443E+00
  13.655  0.619E+00  0.436E+00
  13.675  0.607E+00  0.428E+00
  13.695  0.595E+00  0.420E+00
  13.715  0.583E+00  0.413E+00
  13.735  0.571E+00  0.405E+00
  13.755  0.559E+00  0.397E+00
  13.775  0.548E+00  0.390E+00
  13.795  0.537E+00  0.383E+00
  13.815  0.525E+00  0.376E+00
  13.835  0.515E+00  0.369E+00
  13.855  0.504E+00  0.362E+00
  13.875  0.494E+00  0.356E+00
  13.895  0.485E+00  0.350E+00
  13.915  0.476E+00  0.344E+00
  13.935  0.467E+00  0.339E+00
  13.955  0.459E+00  0.334E+00
  13.975  0.452E+00  0.329E+00
  13.995  0.445E+00  0.325E+00
  14.015  0.438E+00  0.321E+00
  14.035  0.432E+00  0.317E+00
  14.055  0.426E+00  0.314E+00
  14.075  0.421E+00  0.311E+00
  14.095  0.416E+00  0.308E+00
  14.115  0.412E+00  0.305E+00
  14.135  0.408E+00  0.303E+00
  14.155  0.404E+00  0.301E+00
  14.175  0.400E+00  0.299E+00
  14.195  0.397E+00  0.297E+00
  14.215  0.394E+00  0.295E+00
  14.235  0.391E+00  0.293E+00
  14.255  0.388E+00  0.292E+00
  14.275  0.385E+00  0.290E+00
  14.295  0.382E+00  0.288E+00
  14.315  0.379E+00  0.287E+00
  14.335  0.376E+00  0.285E+00
  14.355  0.374E+00  0.284E+00
  14.375  0.371E+00  0.282E+00
  14.395  0.368E+00  0.280E+00
  14.415  0.365E+00  0.278E+00
  14.435  0.362E+00  0.277E+00
  14.455  0.359E+00  0.275E+00
  14.475  0.356E+00  0.273E+00
  14.495  0.353E+00  0.271E+00
  14.515  0.350E+00  0.269E+00
  14.535  0.346E+00  0.267E+00
  14.555  0.343E+00  0.265E+00
  14.575  0.340E+00  0.263E+00
  14.595  0.337E+00  0.261E+00
  14.615  0.334E+00  0.259E+00
  14.635  0.331E+00  0.257E+00
  14.655  0.328E+00  0.255E+00
  14.675  0.325E+00  0.253E+00
  14.695  0.323E+00  0.251E+00
  14.715  0.320E+00  0.249E+00
  14.735  0.318E+00  0.248E+00
  14.755  0.315E+00  0.246E+00
  14.775  0.313E+00  0.245E+00
  14.795  0.311E+00  0.243E+00
  14.815  0.309E+00  0.242E+00
  14.835  0.308E+00  0.241E+00
  14.855  0.306E+00  0.240E+00
  14.875  0.305E+00  0.239E+00
  14.895  0.304E+00  0.239E+00
  14.915  0.303E+00  0.238E+00
  14.935  0.302E+00  0.237E+00
  14.955  0.301E+00  0.237E+00
  14.975  0.301E+00  0.237E+00
  14.995  0.300E+00  0.236E+00
  15.015  0.300E+00  0.236E+00
  15.035  0.300E+00  0.236E+00
  15.055  0.300E+00  0.236E+00
  15.075  0.300E+00  0.236E+00
  15.095  0.301E+00  0.237E+00
  15.115  0.301E+00  0.237E+00
  15.135  0.302E+00  0.238E+00
  15.155  0.303E+00  0.238E+00
  15.175  0.304E+00  0.239E+00
  15.195  0.305E+00  0.239E+00
  15.215  0.306E+00  0.240E+00
  15.235  0.307E+00  0.241E+00
  15.255  0.308E+00  0.242E+00
  15.275  0.310E+00  0.243E+00
  15.295  0.312E+00  0.244E+00
  15.315  0.314E+00  0.246E+00
  15.335  0.316E+00  0.247E+00
  15.355  0.318E+00  0.248E+00
  15.375  0.320E+00  0.250E+00
  15.395  0.322E+00  0.251E+00
  15.415  0.324E+00  0.253E+00
  15.435  0.327E+00  0.255E+00
  15.455  0.329E+00  0.257E+00
  15.475  0.332E+00  0.258E+00
  15.495  0.335E+00  0.260E+00
  15.515  0.337E+00  0.262E+00
  15.535  0.340E+00  0.264E+00
  15.555  0.343E+00  0.266E+00
  15.575  0.346E+00  0.268E+00
  15.595  0.349E+00  0.270E+00
  15.615  0.352E+00  0.272E+00
  15.635  0.355E+00  0.274E+00
  15.655  0.358E+00  0.276E+00
  15.675  0.362E+00  0.278E+00
  15.695  0.365E+00  0.280E+00
  15.715  0.368E+00  0.283E+00
  15.735  0.371E+00  0.285E+00
  15.755  0.375E+00  0.287E+00
  15.775  0.378E+00  0.289E+00
  15.795  0.381E+00  0.292E+00
  15.815  0.385E+00  0.294E+00
  15.835  0.388E+00  0.296E+00
  15.855  0.392E+00  0.299E+00
  15.875  0.396E+00  0.301E+00
  15.895  0.399E+00  0.304E+00
  15.915  0.403E+00  0.306E+00
  15.935  0.406E+00  0.309E+00
  15.955  0.410E+00  0.311E+00
  15.975  0.413E+00  0.313E+00
  15.995  0.417E+00  0.316E+00
  16.015  0.420E+00  0.318E+00
  16.035  0.423E+00  0.320E+00
  16.055  0.426E+00  0.322E+00
  16.075  0.429E+00  0.324E+00
  16.095  0.431E+00  0.326E+00
  16.115  0.433E+00  0.327E+00
  16.135  0.435E+00  0.328E+00
  16.155  0.437E+00  0.329E+00
  16.175  0.438E+00  0.330E+00
  16.195  0.439E+00  0.330E+00
  16.215  0.439E+00  0.330E+00
  16.235  0.439E+00  0.330E+00
  16.255  0.438E+00  0.329E+00
  16.275  0.437E+00  0.328E+00
  16.295  0.436E+00  0.327E+00
  16.315  0.434E+00  0.325E+00
  16.335  0.431E+00  0.323E+00
  16.355  0.428E+00  0.321E+00
  16.375  0.425E+00  0.318E+00
  16.395  0.421E+00  0.315E+00
  16.415  0.417E+00  0.312E+00
  16.435  0.413E+00  0.308E+00
  16.455  0.408E+00  0.304E+00
  16.475  0.403E+00  0.300E+00
  16.495  0.398E+00  0.296E+00
  16.515  0.393E+00  0.292E+00
  16.535  0.388E+00  0.287E+00
  16.555  0.383E+00  0.283E+00
  16.575  0.378E+00  0.278E+00
  16.595  0.373E+00  0.274E+00
  16.615  0.368E+00  0.270E+00
  16.635  0.363E+00  0.266E+00
  16.655  0.359E+00  0.262E+00
  16.675  0.354E+00  0.258E+00
  16.695  0.350E+00  0.254E+00
  16.715  0.347E+00  0.251E+00
  16.735  0.343E+00  0.248E+00
  16.755  0.340E+00  0.245E+00
  16.775  0.337E+00  0.242E+00
  16.795  0.335E+00  0.239E+00
  16.815  0.333E+00  0.237E+00
  16.835  0.331E+00  0.235E+00
  16.855  0.329E+00  0.233E+00
  16.875  0.327E+00  0.231E+00
  16.895  0.326E+00  0.230E+00
  16.915  0.325E+00  0.228E+00
  16.935  0.324E+00  0.227E+00
  16.955  0.323E+00  0.226E+00
  16.975  0.322E+00  0.225E+00
  16.995  0.321E+00  0.224E+00
  17.015  0.320E+00  0.223E+00
  17.035  0.319E+00  0.222E+00
  17.055  0.318E+00  0.221E+00
  17.075  0.316E+00  0.220E+00
  17.095  0.315E+00  0.219E+00
  17.115  0.314E+00  0.218E+00
  17.135  0.312E+00  0.216E+00
  17.155  0.311E+00  0.215E+00
  17.175  0.309E+00  0.214E+00
  17.195  0.307E+00  0.213E+00
  17.215  0.306E+00  0.211E+00
  17.235  0.304E+00  0.210E+00
  17.255  0.302E+00  0.208E+00
  17.275  0.300E+00  0.207E+00
  17.295  0.297E+00  0.205E+00
  17.315  0.295E+00  0.204E+00
  17.335  0.293E+00  0.202E+00
  17.355  0.291E+00  0.201E+00
  17.375  0.289E+00  0.199E+00
  17.395  0.287E+00  0.197E+00
  17.415  0.285E+00  0.196E+00
  17.435  0.282E+00  0.194E+00
  17.455  0.280E+00  0.193E+00
  17.475  0.278E+00  0.191E+00
  17.495  0.276E+00  0.189E+00
  17.515  0.274E+00  0.188E+00
  17.535  0.272E+00  0.186E+00
  17.555  0.271E+00  0.185E+00
  17.575  0.269E+00  0.183E+00
  17.595  0.267E+00  0.181E+00
  17.615  0.265E+00  0.180E+00
  17.635  0.263E+00  0.178E+00
  17.655  0.262E+00  0.177E+00
  17.675  0.260E+00  0.175E+00
  17.695  0.258E+00  0.174E+00
  17.715  0.257E+00  0.172E+00
  17.735  0.255E+00  0.170E+00
  17.755  0.253E+00  0.169E+00
  17.775  0.252E+00  0.167E+00
  17.795  0.250E+00  0.166E+00
  17.815  0.249E+00  0.164E+00
  17.835  0.247E+00  0.163E+00
  17.855  0.246E+00  0.161E+00
  17.875  0.244E+00  0.160E+00
  17.895  0.243E+00  0.158E+00
  17.915  0.242E+00  0.157E+00
  17.935  0.240E+00  0.156E+00
  17.955  0.239E+00  0.154E+00
  17.975  0.237E+00  0.153E+00
  17.995  0.236E+00  0.151E+00
  18.015  0.235E+00  0.150E+00
  18.035  0.234E+00  0.149E+00
  18.055  0.232E+00  0.147E+00
  18.075  0.231E+00  0.146E+00
  18.095  0.230E+00  0.144E+00
  18.115  0.228E+00  0.143E+00
  18.135  0.227E+00  0.142E+00
  18.155  0.225E+00  0.140E+00
  18.175  0.224E+00  0.139E+00
  18.195  0.222E+00  0.137E+00
  18.215  0.220E+00  0.136E+00
  18.235  0.219E+00  0.134E+00
  18.255  0.217E+00  0.132E+00
  18.275  0.215E+00  0.131E+00
  18.295  0.213E+00  0.129E+00
  18.315  0.211E+00  0.127E+00
  18.335  0.209E+00  0.125E+00
  18.355  0.207E+00  0.123E+00
  18.375  0.205E+00  0.122E+00
  18.395  0.203E+00  0.120E+00
  18.415  0.201E+00  0.118E+00
  18.435  0.199E+00  0.116E+00
  18.455  0.197E+00  0.114E+00
  18.475  0.195E+00  0.112E+00
  18.495  0.193E+00  0.111E+00
  18.515  0.191E+00  0.109E+00
  18.535  0.190E+00  0.107E+00
  18.555  0.188E+00  0.106E+00
  18.575  0.187E+00  0.104E+00
  18.595  0.185E+00  0.103E+00
  18.615  0.184E+00  0.102E+00
  18.635  0.183E+00  0.101E+00
  18.655  0.182E+00  0.994E-01
  18.675  0.182E+00  0.984E-01
  18.695  0.181E+00  0.974E-01
  18.715  0.180E+00  0.964E-01
  18.735  0.180E+00  0.955E-01
  18.755  0.179E+00  0.946E-01
  18.775  0.178E+00  0.938E-01
  18.795  0.177E+00  0.929E-01
  18.815  0.176E+00  0.920E-01
  18.835  0.175E+00  0.911E-01
  18.855  0.174E+00  0.901E-01
  18.875  0.173E+00  0.890E-01
  18.895  0.171E+00  0.879E-01
  18.915  0.169E+00  0.867E-01
  18.935  0.167E+00  0.854E-01
  18.955  0.165E+00  0.840E-01
  18.975  0.163E+00  0.825E-01
  18.995  0.160E+00  0.809E-01
  19.015  0.157E+00  0.792E-01
  19.035  0.154E+00  0.774E-01
  19.055  0.151E+00  0.755E-01
  19.075  0.147E+00  0.736E-01
  19.095  0.144E+00  0.716E-01
  19.115  0.140E+00  0.696E-01
  19.135  0.137E+00  0.675E-01
  19.155  0.133E+00  0.654E-01
  19.175  0.129E+00  0.634E-01
  19.195  0.126E+00  0.614E-01
  19.215  0.123E+00  0.594E-01
  19.235  0.119E+00  0.575E-01
  19.255  0.116E+00  0.557E-01
  19.275  0.114E+00  0.540E-01
  19.295  0.111E+00  0.525E-01
  19.315  0.109E+00  0.510E-01
  19.335  0.107E+00  0.497E-01
  19.355  0.106E+00  0.485E-01
  19.375  0.104E+00  0.475E-01
  19.395  0.104E+00  0.467E-01
  19.415  0.103E+00  0.460E-01
  19.435  0.103E+00  0.454E-01
  19.455  0.103E+00  0.450E-01
  19.475  0.103E+00  0.447E-01
  19.495  0.104E+00  0.446E-01
  19.515  0.105E+00  0.446E-01
  19.535  0.106E+00  0.447E-01
  19.555  0.107E+00  0.449E-01
  19.575  0.108E+00  0.451E-01
  19.595  0.110E+00  0.454E-01
  19.615  0.111E+00  0.458E-01
  19.635  0.112E+00  0.462E-01
  19.655  0.114E+00  0.466E-01
  19.675  0.115E+00  0.470E-01
  19.695  0.116E+00  0.474E-01
  19.715  0.117E+00  0.477E-01
  19.735  0.118E+00  0.480E-01
  19.755  0.119E+00  0.483E-01
  19.775  0.119E+00  0.485E-01
  19.795  0.119E+00  0.486E-01
  19.815  0.120E+00  0.486E-01
  19.835  0.119E+00  0.486E-01
  19.855  0.119E+00  0.485E-01
  19.875  0.118E+00  0.483E-01
  19.895  0.118E+00  0.481E-01
  19.915  0.117E+00  0.477E-01
  19.935  0.115E+00  0.473E-01
  19.955  0.114E+00  0.469E-01
  19.975  0.112E+00  0.463E-01
  19.995  0.111E+00  0.458E-01
  20.015  0.109E+00  0.452E-01
  20.035  0.107E+00  0.445E-01
  20.055  0.106E+00  0.438E-01
  20.075  0.104E+00  0.431E-01
  20.095  0.102E+00  0.424E-01
  20.115  0.100E+00  0.417E-01
  20.135  0.982E-01  0.410E-01
  20.155  0.964E-01  0.403E-01
  20.175  0.946E-01  0.396E-01
  20.195  0.930E-01  0.389E-01
  20.215  0.914E-01  0.383E-01
  20.235  0.899E-01  0.377E-01
  20.255  0.885E-01  0.371E-01
  20.275  0.872E-01  0.366E-01
  20.295  0.860E-01  0.361E-01
  20.315  0.848E-01  0.356E-01
  20.335  0.838E-01  0.352E-01
  20.355  0.828E-01  0.348E-01
  20.375  0.819E-01  0.344E-01
  20.395  0.811E-01  0.341E-01
  20.415  0.803E-01  0.338E-01
  20.435  0.796E-01  0.336E-01
  20.455  0.789E-01  0.334E-01
  20.475  0.783E-01  0.333E-01
  20.495  0.778E-01  0.332E-01
  20.515  0.773E-01  0.331E-01
  20.535  0.768E-01  0.331E-01
  20.555  0.764E-01  0.331E-01
  20.575  0.760E-01  0.332E-01
  20.595  0.757E-01  0.332E-01
  20.615  0.754E-01  0.334E-01
  20.635  0.751E-01  0.335E-01
  20.655  0.749E-01  0.337E-01
  20.675  0.747E-01  0.340E-01
  20.695  0.746E-01  0.342E-01
  20.715  0.745E-01  0.345E-01
  20.735  0.744E-01  0.348E-01
  20.755  0.744E-01  0.352E-01
  20.775  0.744E-01  0.355E-01
  20.795  0.745E-01  0.359E-01
  20.815  0.745E-01  0.363E-01
  20.835  0.746E-01  0.367E-01
  20.855  0.747E-01  0.370E-01
  20.875  0.748E-01  0.374E-01
  20.895  0.749E-01  0.378E-01
  20.915  0.750E-01  0.381E-01
  20.935  0.751E-01  0.384E-01
  20.955  0.751E-01  0.387E-01
  20.975  0.751E-01  0.389E-01
  20.995  0.750E-01  0.391E-01
  21.015  0.748E-01  0.392E-01
  21.035  0.745E-01  0.393E-01
  21.055  0.742E-01  0.393E-01
  21.075  0.738E-01  0.392E-01
  21.095  0.732E-01  0.391E-01
  21.115  0.726E-01  0.389E-01
  21.135  0.718E-01  0.387E-01
  21.155  0.710E-01  0.384E-01
  21.175  0.700E-01  0.380E-01
  21.195  0.690E-01  0.376E-01
  21.215  0.679E-01  0.371E-01
  21.235  0.667E-01  0.367E-01
  21.255  0.654E-01  0.361E-01
  21.275  0.641E-01  0.356E-01
  21.295  0.628E-01  0.350E-01
  21.315  0.614E-01  0.345E-01
  21.335  0.601E-01  0.339E-01
  21.355  0.587E-01  0.334E-01
  21.375  0.574E-01  0.329E-01
  21.395  0.561E-01  0.324E-01
  21.415  0.549E-01  0.319E-01
  21.435  0.537E-01  0.315E-01
  21.455  0.526E-01  0.311E-01
  21.475  0.516E-01  0.308E-01
  21.495  0.507E-01  0.306E-01
  21.515  0.499E-01  0.304E-01
  21.535  0.492E-01  0.302E-01
  21.555  0.486E-01  0.302E-01
  21.575  0.480E-01  0.301E-01
  21.595  0.476E-01  0.302E-01
  21.615  0.473E-01  0.302E-01
  21.635  0.470E-01  0.304E-01
  21.655  0.469E-01  0.305E-01
  21.675  0.468E-01  0.307E-01
  21.695  0.467E-01  0.310E-01
  21.715  0.467E-01  0.312E-01
  21.735  0.467E-01  0.315E-01
  21.755  0.467E-01  0.317E-01
  21.775  0.468E-01  0.320E-01
  21.795  0.468E-01  0.322E-01
  21.815  0.469E-01  0.325E-01
  21.835  0.469E-01  0.327E-01
  21.855  0.469E-01  0.329E-01
  21.875  0.468E-01  0.330E-01
  21.895  0.467E-01  0.332E-01
  21.915  0.466E-01  0.333E-01
  21.935  0.464E-01  0.333E-01
  21.955  0.462E-01  0.333E-01
  21.975  0.459E-01  0.333E-01
  21.995  0.456E-01  0.332E-01
  22.015  0.452E-01  0.331E-01
  22.035  0.447E-01  0.330E-01
  22.055  0.442E-01  0.328E-01
  22.075  0.437E-01  0.325E-01
  22.095  0.431E-01  0.322E-01
  22.115  0.424E-01  0.319E-01
  22.135  0.418E-01  0.316E-01
  22.155  0.410E-01  0.312E-01
  22.175  0.403E-01  0.308E-01
  22.195  0.396E-01  0.304E-01
  22.215  0.388E-01  0.299E-01
  22.235  0.380E-01  0.294E-01
  22.255  0.372E-01  0.290E-01
  22.275  0.364E-01  0.285E-01
  22.295  0.356E-01  0.280E-01
  22.315  0.348E-01  0.275E-01
  22.335  0.340E-01  0.269E-01
  22.355  0.332E-01  0.264E-01
  22.375  0.325E-01  0.260E-01
  22.395  0.318E-01  0.255E-01
  22.415  0.311E-01  0.250E-01
  22.435  0.304E-01  0.246E-01
  22.455  0.298E-01  0.241E-01
  22.475  0.292E-01  0.237E-01
  22.495  0.286E-01  0.233E-01
  22.515  0.281E-01  0.230E-01
  22.535  0.276E-01  0.227E-01
  22.555  0.272E-01  0.224E-01
  22.575  0.268E-01  0.221E-01
  22.595  0.265E-01  0.219E-01
  22.615  0.262E-01  0.217E-01
  22.635  0.259E-01  0.216E-01
  22.655  0.257E-01  0.214E-01
  22.675  0.255E-01  0.213E-01
  22.695  0.254E-01  0.212E-01
  22.715  0.253E-01  0.212E-01
  22.735  0.252E-01  0.211E-01
  22.755  0.251E-01  0.211E-01
  22.775  0.250E-01  0.211E-01
  22.795  0.250E-01  0.210E-01
  22.815  0.249E-01  0.210E-01
  22.835  0.248E-01  0.209E-01
  22.855  0.247E-01  0.209E-01
  22.875  0.246E-01  0.208E-01
  22.895  0.245E-01  0.207E-01
  22.915  0.243E-01  0.206E-01
  22.935  0.241E-01  0.204E-01
  22.955  0.239E-01  0.202E-01
  22.975  0.236E-01  0.200E-01
  22.995  0.232E-01  0.197E-01
  23.015  0.229E-01  0.194E-01
  23.035  0.224E-01  0.190E-01
  23.055  0.220E-01  0.186E-01
  23.075  0.215E-01  0.182E-01
  23.095  0.209E-01  0.177E-01
  23.115  0.203E-01  0.172E-01
  23.135  0.197E-01  0.167E-01
  23.155  0.190E-01  0.162E-01
  23.175  0.184E-01  0.156E-01
  23.195  0.177E-01  0.150E-01
  23.215  0.170E-01  0.144E-01
  23.235  0.163E-01  0.138E-01
  23.255  0.156E-01  0.132E-01
  23.275  0.149E-01  0.126E-01
  23.295  0.142E-01  0.121E-01
  23.315  0.135E-01  0.115E-01
  23.335  0.129E-01  0.109E-01
  23.355  0.123E-01  0.104E-01
  23.375  0.117E-01  0.993E-02
  23.395  0.111E-01  0.947E-02
  23.415  0.106E-01  0.903E-02
  23.435  0.101E-01  0.864E-02
  23.455  0.969E-02  0.827E-02
  23.475  0.930E-02  0.794E-02
  23.495  0.895E-02  0.764E-02
  23.515  0.864E-02  0.738E-02
  23.535  0.837E-02  0.715E-02
  23.555  0.813E-02  0.696E-02
  23.575  0.793E-02  0.679E-02
  23.595  0.776E-02  0.665E-02
  23.615  0.762E-02  0.653E-02
  23.635  0.750E-02  0.643E-02
  23.655  0.741E-02  0.635E-02
  23.675  0.733E-02  0.629E-02
  23.695  0.727E-02  0.624E-02
  23.715  0.721E-02  0.619E-02
  23.735  0.716E-02  0.615E-02
  23.755  0.712E-02  0.611E-02
  23.775  0.707E-02  0.608E-02
  23.795  0.702E-02  0.603E-02
  23.815  0.697E-02  0.598E-02
  23.835  0.690E-02  0.593E-02
  23.855  0.683E-02  0.586E-02
  23.875  0.674E-02  0.579E-02
  23.895  0.663E-02  0.570E-02
  23.915  0.651E-02  0.560E-02
  23.935  0.638E-02  0.548E-02
  23.955  0.623E-02  0.535E-02
  23.975  0.606E-02  0.521E-02
  23.995  0.588E-02  0.505E-02
  24.015  0.569E-02  0.489E-02
  24.035  0.548E-02  0.471E-02
  24.055  0.526E-02  0.452E-02
  24.075  0.503E-02  0.432E-02
  24.095  0.480E-02  0.412E-02
  24.115  0.455E-02  0.391E-02
  24.135  0.430E-02  0.369E-02
  24.155  0.405E-02  0.348E-02
  24.175  0.380E-02  0.326E-02
  24.195  0.355E-02  0.304E-02
  24.215  0.330E-02  0.283E-02
  24.235  0.306E-02  0.262E-02
  24.255  0.282E-02  0.242E-02
  24.275  0.259E-02  0.222E-02
  24.295  0.237E-02  0.203E-02
  24.315  0.216E-02  0.185E-02
  24.335  0.195E-02  0.168E-02
  24.355  0.176E-02  0.151E-02
  24.375  0.159E-02  0.136E-02
  24.395  0.142E-02  0.122E-02
  24.415  0.126E-02  0.108E-02
  24.435  0.112E-02  0.960E-03
  24.455  0.989E-03  0.848E-03
  24.475  0.869E-03  0.745E-03
  24.495  0.760E-03  0.652E-03
  24.515  0.662E-03  0.568E-03
  24.535  0.574E-03  0.492E-03
  24.555  0.496E-03  0.425E-03
  24.575  0.426E-03  0.365E-03
  24.595  0.364E-03  0.312E-03
  24.615  0.310E-03  0.266E-03
  24.635  0.263E-03  0.225E-03
  24.655  0.222E-03  0.190E-03
  24.675  0.186E-03  0.159E-03
  24.695  0.156E-03  0.133E-03
  24.715  0.129E-03  0.111E-03
  24.735  0.107E-03  0.918E-04
  24.755  0.883E-04  0.756E-04
  24.775  0.724E-04  0.621E-04
  24.795  0.591E-04  0.507E-04
  24.815  0.481E-04  0.412E-04
  24.835  0.389E-04  0.333E-04
  24.855  0.313E-04  0.268E-04
  24.875  0.251E-04  0.215E-04
  24.895  0.200E-04  0.171E-04
  24.915  0.159E-04  0.136E-04
  24.935  0.125E-04  0.108E-04
  24.955  0.987E-05  0.845E-05
  24.975  0.772E-05  0.662E-05
  24.995  0.602E-05  0.515E-05
  25.015  0.466E-05  0.400E-05
  25.035  0.360E-05  0.308E-05
  25.055  0.276E-05  0.237E-05
  25.075  0.211E-05  0.181E-05
  25.095  0.161E-05  0.138E-05
  25.115  0.122E-05  0.104E-05
  25.135  0.917E-06  0.786E-06
  25.155  0.688E-06  0.589E-06
  25.175  0.513E-06  0.440E-06
