# E (eV)  dos(E)    pdos(E)
  -4.239  0.110E-05  0.109E-05
  -4.219  0.149E-05  0.147E-05
  -4.199  0.200E-05  0.199E-05
  -4.179  0.269E-05  0.266E-05
  -4.159  0.359E-05  0.356E-05
  -4.139  0.477E-05  0.473E-05
  -4.119  0.631E-05  0.626E-05
  -4.099  0.831E-05  0.824E-05
  -4.079  0.109E-04  0.108E-04
  -4.059  0.142E-04  0.141E-04
  -4.039  0.185E-04  0.184E-04
  -4.019  0.239E-04  0.238E-04
  -3.999  0.309E-04  0.306E-04
  -3.979  0.396E-04  0.393E-04
  -3.959  0.506E-04  0.502E-04
  -3.939  0.643E-04  0.638E-04
  -3.919  0.815E-04  0.808E-04
  -3.899  0.103E-03  0.102E-03
  -3.879  0.129E-03  0.128E-03
  -3.859  0.161E-03  0.160E-03
  -3.839  0.201E-03  0.199E-03
  -3.819  0.249E-03  0.247E-03
  -3.799  0.307E-03  0.305E-03
  -3.779  0.377E-03  0.374E-03
  -3.759  0.462E-03  0.458E-03
  -3.739  0.563E-03  0.559E-03
  -3.719  0.683E-03  0.678E-03
  -3.699  0.826E-03  0.819E-03
  -3.679  0.994E-03  0.986E-03
  -3.659  0.119E-02  0.118E-02
  -3.639  0.142E-02  0.141E-02
  -3.619  0.169E-02  0.168E-02
  -3.599  0.200E-02  0.199E-02
  -3.579  0.236E-02  0.234E-02
  -3.559  0.277E-02  0.275E-02
  -3.539  0.324E-02  0.322E-02
  -3.519  0.378E-02  0.375E-02
  -3.499  0.439E-02  0.435E-02
  -3.479  0.507E-02  0.503E-02
  -3.459  0.584E-02  0.580E-02
  -3.439  0.670E-02  0.665E-02
  -3.419  0.766E-02  0.761E-02
  -3.399  0.873E-02  0.866E-02
  -3.379  0.990E-02  0.983E-02
  -3.359  0.112E-01  0.111E-01
  -3.339  0.126E-01  0.125E-01
  -3.319  0.142E-01  0.140E-01
  -3.299  0.158E-01  0.157E-01
  -3.279  0.176E-01  0.175E-01
  -3.259  0.196E-01  0.194E-01
  -3.239  0.217E-01  0.215E-01
  -3.219  0.239E-01  0.237E-01
  -3.199  0.263E-01  0.261E-01
  -3.179  0.288E-01  0.286E-01
  -3.159  0.315E-01  0.312E-01
  -3.139  0.343E-01  0.340E-01
  -3.119  0.372E-01  0.369E-01
  -3.099  0.403E-01  0.400E-01
  -3.079  0.434E-01  0.431E-01
  -3.059  0.467E-01  0.464E-01
  -3.039  0.501E-01  0.498E-01
  -3.019  0.536E-01  0.533E-01
  -2.999  0.572E-01  0.568E-01
  -2.979  0.609E-01  0.605E-01
  -2.959  0.647E-01  0.642E-01
  -2.939  0.685E-01  0.680E-01
  -2.919  0.723E-01  0.718E-01
  -2.899  0.762E-01  0.757E-01
  -2.879  0.801E-01  0.796E-01
  -2.859  0.841E-01  0.835E-01
  -2.839  0.880E-01  0.874E-01
  -2.819  0.920E-01  0.913E-01
  -2.799  0.959E-01  0.952E-01
  -2.779  0.998E-01  0.991E-01
  -2.759  0.104E+00  0.103E+00
  -2.739  0.108E+00  0.107E+00
  -2.719  0.111E+00  0.111E+00
  -2.699  0.115E+00  0.114E+00
  -2.679  0.119E+00  0.118E+00
  -2.659  0.122E+00  0.122E+00
  -2.639  0.126E+00  0.125E+00
  -2.619  0.130E+00  0.129E+00
  -2.599  0.133E+00  0.132E+00
  -2.579  0.136E+00  0.135E+00
  -2.559  0.140E+00  0.139E+00
  -2.539  0.143E+00  0.142E+00
  -2.519  0.146E+00  0.145E+00
  -2.499  0.149E+00  0.148E+00
  -2.479  0.153E+00  0.152E+00
  -2.459  0.156E+00  0.155E+00
  -2.439  0.159E+00  0.158E+00
  -2.419  0.162E+00  0.160E+00
  -2.399  0.164E+00  0.163E+00
  -2.379  0.167E+00  0.166E+00
  -2.359  0.170E+00  0.169E+00
  -2.339  0.173E+00  0.171E+00
  -2.319  0.175E+00  0.174E+00
  -2.299  0.178E+00  0.177E+00
  -2.279  0.180E+00  0.179E+00
  -2.259  0.183E+00  0.182E+00
  -2.239  0.185E+00  0.184E+00
  -2.219  0.188E+00  0.186E+00
  -2.199  0.190E+00  0.189E+00
  -2.179  0.192E+00  0.191E+00
  -2.159  0.195E+00  0.193E+00
  -2.139  0.197E+00  0.195E+00
  -2.119  0.199E+00  0.198E+00
  -2.099  0.201E+00  0.200E+00
  -2.079  0.203E+00  0.202E+00
  -2.059  0.205E+00  0.204E+00
  -2.039  0.208E+00  0.206E+00
  -2.019  0.210E+00  0.208E+00
  -1.999  0.212E+00  0.210E+00
  -1.979  0.214E+00  0.212E+00
  -1.959  0.216E+00  0.214E+00
  -1.939  0.218E+00  0.216E+00
  -1.919  0.220E+00  0.218E+00
  -1.899  0.222E+00  0.220E+00
  -1.879  0.224E+00  0.223E+00
  -1.859  0.227E+00  0.225E+00
  -1.839  0.229E+00  0.227E+00
  -1.819  0.231E+00  0.229E+00
  -1.799  0.233E+00  0.231E+00
  -1.779  0.235E+00  0.233E+00
  -1.759  0.237E+00  0.235E+00
  -1.739  0.239E+00  0.237E+00
  -1.719  0.241E+00  0.239E+00
  -1.699  0.243E+00  0.241E+00
  -1.679  0.245E+00  0.242E+00
  -1.659  0.247E+00  0.244E+00
  -1.639  0.249E+00  0.246E+00
  -1.619  0.250E+00  0.248E+00
  -1.599  0.252E+00  0.249E+00
  -1.579  0.254E+00  0.251E+00
  -1.559  0.255E+00  0.252E+00
  -1.539  0.257E+00  0.254E+00
  -1.519  0.258E+00  0.255E+00
  -1.499  0.260E+00  0.257E+00
  -1.479  0.261E+00  0.258E+00
  -1.459  0.262E+00  0.259E+00
  -1.439  0.264E+00  0.261E+00
  -1.419  0.265E+00  0.262E+00
  -1.399  0.267E+00  0.264E+00
  -1.379  0.268E+00  0.265E+00
  -1.359  0.270E+00  0.266E+00
  -1.339  0.272E+00  0.268E+00
  -1.319  0.273E+00  0.270E+00
  -1.299  0.275E+00  0.271E+00
  -1.279  0.277E+00  0.273E+00
  -1.259  0.279E+00  0.275E+00
  -1.239  0.281E+00  0.277E+00
  -1.219  0.283E+00  0.279E+00
  -1.199  0.285E+00  0.281E+00
  -1.179  0.287E+00  0.283E+00
  -1.159  0.289E+00  0.285E+00
  -1.139  0.291E+00  0.287E+00
  -1.119  0.293E+00  0.289E+00
  -1.099  0.295E+00  0.291E+00
  -1.079  0.297E+00  0.293E+00
  -1.059  0.299E+00  0.295E+00
  -1.039  0.301E+00  0.297E+00
  -1.019  0.303E+00  0.299E+00
  -0.999  0.305E+00  0.300E+00
  -0.979  0.307E+00  0.302E+00
  -0.959  0.308E+00  0.304E+00
  -0.939  0.310E+00  0.305E+00
  -0.919  0.312E+00  0.306E+00
  -0.899  0.313E+00  0.308E+00
  -0.879  0.314E+00  0.309E+00
  -0.859  0.315E+00  0.310E+00
  -0.839  0.317E+00  0.311E+00
  -0.819  0.318E+00  0.312E+00
  -0.799  0.319E+00  0.313E+00
  -0.779  0.320E+00  0.314E+00
  -0.759  0.321E+00  0.315E+00
  -0.739  0.322E+00  0.316E+00
  -0.719  0.323E+00  0.317E+00
  -0.699  0.324E+00  0.318E+00
  -0.679  0.325E+00  0.319E+00
  -0.659  0.326E+00  0.320E+00
  -0.639  0.328E+00  0.321E+00
  -0.619  0.329E+00  0.323E+00
  -0.599  0.330E+00  0.324E+00
  -0.579  0.332E+00  0.325E+00
  -0.559  0.333E+00  0.327E+00
  -0.539  0.335E+00  0.328E+00
  -0.519  0.337E+00  0.330E+00
  -0.499  0.339E+00  0.332E+00
  -0.479  0.341E+00  0.334E+00
  -0.459  0.343E+00  0.336E+00
  -0.439  0.345E+00  0.338E+00
  -0.419  0.348E+00  0.340E+00
  -0.399  0.350E+00  0.342E+00
  -0.379  0.352E+00  0.344E+00
  -0.359  0.355E+00  0.347E+00
  -0.339  0.357E+00  0.349E+00
  -0.319  0.360E+00  0.351E+00
  -0.299  0.362E+00  0.354E+00
  -0.279  0.365E+00  0.356E+00
  -0.259  0.367E+00  0.358E+00
  -0.239  0.370E+00  0.360E+00
  -0.219  0.372E+00  0.363E+00
  -0.199  0.375E+00  0.365E+00
  -0.179  0.377E+00  0.367E+00
  -0.159  0.379E+00  0.369E+00
  -0.139  0.381E+00  0.371E+00
  -0.119  0.383E+00  0.372E+00
  -0.099  0.385E+00  0.374E+00
  -0.079  0.387E+00  0.376E+00
  -0.059  0.389E+00  0.377E+00
  -0.039  0.391E+00  0.379E+00
  -0.019  0.392E+00  0.380E+00
   0.001  0.394E+00  0.381E+00
   0.021  0.396E+00  0.382E+00
   0.041  0.397E+00  0.384E+00
   0.061  0.399E+00  0.385E+00
   0.081  0.400E+00  0.386E+00
   0.101  0.402E+00  0.387E+00
   0.121  0.404E+00  0.388E+00
   0.141  0.405E+00  0.389E+00
   0.161  0.407E+00  0.390E+00
   0.181  0.409E+00  0.392E+00
   0.201  0.411E+00  0.393E+00
   0.221  0.413E+00  0.394E+00
   0.241  0.415E+00  0.396E+00
   0.261  0.417E+00  0.397E+00
   0.281  0.420E+00  0.399E+00
   0.301  0.423E+00  0.401E+00
   0.321  0.425E+00  0.403E+00
   0.341  0.428E+00  0.405E+00
   0.361  0.432E+00  0.407E+00
   0.381  0.435E+00  0.410E+00
   0.401  0.439E+00  0.413E+00
   0.421  0.443E+00  0.416E+00
   0.441  0.447E+00  0.419E+00
   0.461  0.451E+00  0.422E+00
   0.481  0.455E+00  0.425E+00
   0.501  0.460E+00  0.429E+00
   0.521  0.464E+00  0.432E+00
   0.541  0.469E+00  0.436E+00
   0.561  0.474E+00  0.440E+00
   0.581  0.479E+00  0.444E+00
   0.601  0.484E+00  0.447E+00
   0.621  0.489E+00  0.451E+00
   0.641  0.494E+00  0.455E+00
   0.661  0.498E+00  0.459E+00
   0.681  0.503E+00  0.462E+00
   0.701  0.507E+00  0.466E+00
   0.721  0.511E+00  0.469E+00
   0.741  0.514E+00  0.472E+00
   0.761  0.518E+00  0.474E+00
   0.781  0.521E+00  0.477E+00
   0.801  0.523E+00  0.479E+00
   0.821  0.525E+00  0.480E+00
   0.841  0.527E+00  0.482E+00
   0.861  0.528E+00  0.483E+00
   0.881  0.529E+00  0.483E+00
   0.901  0.529E+00  0.483E+00
   0.921  0.529E+00  0.483E+00
   0.941  0.528E+00  0.482E+00
   0.961  0.527E+00  0.481E+00
   0.981  0.525E+00  0.480E+00
   1.001  0.523E+00  0.478E+00
   1.021  0.521E+00  0.476E+00
   1.041  0.519E+00  0.474E+00
   1.061  0.516E+00  0.471E+00
   1.081  0.513E+00  0.469E+00
   1.101  0.510E+00  0.466E+00
   1.121  0.506E+00  0.463E+00
   1.141  0.503E+00  0.460E+00
   1.161  0.499E+00  0.457E+00
   1.181  0.496E+00  0.453E+00
   1.201  0.492E+00  0.450E+00
   1.221  0.488E+00  0.447E+00
   1.241  0.485E+00  0.443E+00
   1.261  0.481E+00  0.440E+00
   1.281  0.477E+00  0.437E+00
   1.301  0.474E+00  0.433E+00
   1.321  0.470E+00  0.430E+00
   1.341  0.467E+00  0.427E+00
   1.361  0.463E+00  0.423E+00
   1.381  0.460E+00  0.420E+00
   1.401  0.457E+00  0.417E+00
   1.421  0.454E+00  0.414E+00
   1.441  0.451E+00  0.411E+00
   1.461  0.447E+00  0.407E+00
   1.481  0.444E+00  0.404E+00
   1.501  0.441E+00  0.401E+00
   1.521  0.438E+00  0.398E+00
   1.541  0.435E+00  0.394E+00
   1.561  0.432E+00  0.391E+00
   1.581  0.428E+00  0.388E+00
   1.601  0.425E+00  0.384E+00
   1.621  0.422E+00  0.381E+00
   1.641  0.418E+00  0.377E+00
   1.661  0.414E+00  0.373E+00
   1.681  0.411E+00  0.370E+00
   1.701  0.407E+00  0.366E+00
   1.721  0.403E+00  0.362E+00
   1.741  0.399E+00  0.358E+00
   1.761  0.395E+00  0.354E+00
   1.781  0.391E+00  0.349E+00
   1.801  0.387E+00  0.345E+00
   1.821  0.383E+00  0.341E+00
   1.841  0.378E+00  0.336E+00
   1.861  0.374E+00  0.332E+00
   1.881  0.369E+00  0.327E+00
   1.901  0.365E+00  0.323E+00
   1.921  0.360E+00  0.318E+00
   1.941  0.356E+00  0.313E+00
   1.961  0.351E+00  0.309E+00
   1.981  0.347E+00  0.304E+00
   2.001  0.342E+00  0.299E+00
   2.021  0.337E+00  0.294E+00
   2.041  0.333E+00  0.289E+00
   2.061  0.328E+00  0.285E+00
   2.081  0.324E+00  0.280E+00
   2.101  0.319E+00  0.275E+00
   2.121  0.314E+00  0.270E+00
   2.141  0.310E+00  0.265E+00
   2.161  0.305E+00  0.260E+00
   2.181  0.300E+00  0.255E+00
   2.201  0.296E+00  0.250E+00
   2.221  0.291E+00  0.245E+00
   2.241  0.286E+00  0.239E+00
   2.261  0.281E+00  0.234E+00
   2.281  0.276E+00  0.229E+00
   2.301  0.271E+00  0.223E+00
   2.321  0.266E+00  0.218E+00
   2.341  0.261E+00  0.213E+00
   2.361  0.256E+00  0.207E+00
   2.381  0.251E+00  0.202E+00
   2.401  0.246E+00  0.196E+00
   2.421  0.241E+00  0.191E+00
   2.441  0.236E+00  0.185E+00
   2.461  0.231E+00  0.180E+00
   2.481  0.226E+00  0.175E+00
   2.501  0.221E+00  0.169E+00
   2.521  0.216E+00  0.164E+00
   2.541  0.211E+00  0.159E+00
   2.561  0.207E+00  0.154E+00
   2.581  0.202E+00  0.149E+00
   2.601  0.198E+00  0.145E+00
   2.621  0.194E+00  0.140E+00
   2.641  0.190E+00  0.136E+00
   2.661  0.186E+00  0.132E+00
   2.681  0.183E+00  0.128E+00
   2.701  0.180E+00  0.125E+00
   2.721  0.177E+00  0.121E+00
   2.741  0.174E+00  0.118E+00
   2.761  0.172E+00  0.116E+00
   2.781  0.170E+00  0.113E+00
   2.801  0.168E+00  0.111E+00
   2.821  0.166E+00  0.109E+00
   2.841  0.165E+00  0.107E+00
   2.861  0.163E+00  0.105E+00
   2.881  0.162E+00  0.104E+00
   2.901  0.161E+00  0.103E+00
   2.921  0.161E+00  0.102E+00
   2.941  0.160E+00  0.101E+00
   2.961  0.160E+00  0.999E-01
   2.981  0.160E+00  0.993E-01
   3.001  0.159E+00  0.989E-01
   3.021  0.159E+00  0.985E-01
   3.041  0.160E+00  0.983E-01
   3.061  0.160E+00  0.982E-01
   3.081  0.160E+00  0.981E-01
   3.101  0.161E+00  0.982E-01
   3.121  0.161E+00  0.983E-01
   3.141  0.162E+00  0.986E-01
   3.161  0.163E+00  0.990E-01
   3.181  0.163E+00  0.994E-01
   3.201  0.165E+00  0.100E+00
   3.221  0.166E+00  0.101E+00
   3.241  0.167E+00  0.102E+00
   3.261  0.169E+00  0.103E+00
   3.281  0.171E+00  0.104E+00
   3.301  0.174E+00  0.106E+00
   3.321  0.176E+00  0.108E+00
   3.341  0.179E+00  0.110E+00
   3.361  0.183E+00  0.112E+00
   3.381  0.187E+00  0.115E+00
   3.401  0.191E+00  0.119E+00
   3.421  0.196E+00  0.122E+00
   3.441  0.201E+00  0.127E+00
   3.461  0.207E+00  0.131E+00
   3.481  0.214E+00  0.136E+00
   3.501  0.221E+00  0.142E+00
   3.521  0.229E+00  0.148E+00
   3.541  0.237E+00  0.155E+00
   3.561  0.246E+00  0.162E+00
   3.581  0.255E+00  0.170E+00
   3.601  0.266E+00  0.179E+00
   3.621  0.276E+00  0.188E+00
   3.641  0.288E+00  0.197E+00
   3.661  0.300E+00  0.208E+00
   3.681  0.313E+00  0.218E+00
   3.701  0.326E+00  0.229E+00
   3.721  0.339E+00  0.241E+00
   3.741  0.353E+00  0.252E+00
   3.761  0.368E+00  0.264E+00
   3.781  0.382E+00  0.277E+00
   3.801  0.397E+00  0.289E+00
   3.821  0.412E+00  0.302E+00
   3.841  0.427E+00  0.314E+00
   3.861  0.442E+00  0.327E+00
   3.881  0.457E+00  0.339E+00
   3.901  0.472E+00  0.351E+00
   3.921  0.487E+00  0.363E+00
   3.941  0.501E+00  0.375E+00
   3.961  0.515E+00  0.386E+00
   3.981  0.528E+00  0.397E+00
   4.001  0.540E+00  0.407E+00
   4.021  0.552E+00  0.416E+00
   4.041  0.563E+00  0.425E+00
   4.061  0.574E+00  0.433E+00
   4.081  0.583E+00  0.440E+00
   4.101  0.592E+00  0.447E+00
   4.121  0.599E+00  0.452E+00
   4.141  0.606E+00  0.457E+00
   4.161  0.612E+00  0.461E+00
   4.181  0.616E+00  0.464E+00
   4.201  0.620E+00  0.467E+00
   4.221  0.623E+00  0.468E+00
   4.241  0.625E+00  0.469E+00
   4.261  0.626E+00  0.470E+00
   4.281  0.626E+00  0.469E+00
   4.301  0.626E+00  0.468E+00
   4.321  0.625E+00  0.467E+00
   4.341  0.623E+00  0.465E+00
   4.361  0.621E+00  0.462E+00
   4.381  0.618E+00  0.459E+00
   4.401  0.615E+00  0.456E+00
   4.421  0.611E+00  0.453E+00
   4.441  0.607E+00  0.449E+00
   4.461  0.602E+00  0.445E+00
   4.481  0.597E+00  0.441E+00
   4.501  0.592E+00  0.436E+00
   4.521  0.587E+00  0.432E+00
   4.541  0.581E+00  0.427E+00
   4.561  0.575E+00  0.422E+00
   4.581  0.569E+00  0.418E+00
   4.601  0.563E+00  0.413E+00
   4.621  0.556E+00  0.407E+00
   4.641  0.550E+00  0.402E+00
   4.661  0.543E+00  0.397E+00
   4.681  0.536E+00  0.392E+00
   4.701  0.528E+00  0.386E+00
   4.721  0.521E+00  0.381E+00
   4.741  0.514E+00  0.376E+00
   4.761  0.506E+00  0.370E+00
   4.781  0.499E+00  0.365E+00
   4.801  0.491E+00  0.359E+00
   4.821  0.484E+00  0.354E+00
   4.841  0.477E+00  0.349E+00
   4.861  0.470E+00  0.344E+00
   4.881  0.463E+00  0.339E+00
   4.901  0.457E+00  0.335E+00
   4.921  0.451E+00  0.331E+00
   4.941  0.445E+00  0.327E+00
   4.961  0.440E+00  0.324E+00
   4.981  0.435E+00  0.321E+00
   5.001  0.431E+00  0.318E+00
   5.021  0.428E+00  0.316E+00
   5.041  0.426E+00  0.314E+00
   5.061  0.424E+00  0.313E+00
   5.081  0.423E+00  0.313E+00
   5.101  0.422E+00  0.313E+00
   5.121  0.422E+00  0.313E+00
   5.141  0.423E+00  0.314E+00
   5.161  0.425E+00  0.316E+00
   5.181  0.427E+00  0.317E+00
   5.201  0.429E+00  0.320E+00
   5.221  0.433E+00  0.322E+00
   5.241  0.436E+00  0.325E+00
   5.261  0.440E+00  0.328E+00
   5.281  0.443E+00  0.331E+00
   5.301  0.447E+00  0.334E+00
   5.321  0.451E+00  0.337E+00
   5.341  0.455E+00  0.340E+00
   5.361  0.458E+00  0.343E+00
   5.381  0.461E+00  0.345E+00
   5.401  0.463E+00  0.347E+00
   5.421  0.465E+00  0.349E+00
   5.441  0.466E+00  0.350E+00
   5.461  0.467E+00  0.350E+00
   5.481  0.467E+00  0.350E+00
   5.501  0.466E+00  0.350E+00
   5.521  0.464E+00  0.348E+00
   5.541  0.461E+00  0.346E+00
   5.561  0.458E+00  0.344E+00
   5.581  0.454E+00  0.341E+00
   5.601  0.449E+00  0.337E+00
   5.621  0.444E+00  0.333E+00
   5.641  0.438E+00  0.329E+00
   5.661  0.432E+00  0.324E+00
   5.681  0.425E+00  0.319E+00
   5.701  0.418E+00  0.314E+00
   5.721  0.411E+00  0.309E+00
   5.741  0.404E+00  0.303E+00
   5.761  0.397E+00  0.298E+00
   5.781  0.390E+00  0.293E+00
   5.801  0.384E+00  0.288E+00
   5.821  0.378E+00  0.284E+00
   5.841  0.373E+00  0.279E+00
   5.861  0.369E+00  0.276E+00
   5.881  0.365E+00  0.273E+00
   5.901  0.362E+00  0.270E+00
   5.921  0.360E+00  0.268E+00
   5.941  0.359E+00  0.267E+00
   5.961  0.359E+00  0.267E+00
   5.981  0.359E+00  0.267E+00
   6.001  0.361E+00  0.268E+00
   6.021  0.364E+00  0.269E+00
   6.041  0.367E+00  0.272E+00
   6.061  0.372E+00  0.274E+00
   6.081  0.377E+00  0.278E+00
   6.101  0.383E+00  0.282E+00
   6.121  0.389E+00  0.286E+00
   6.141  0.397E+00  0.291E+00
   6.161  0.404E+00  0.296E+00
   6.181  0.412E+00  0.302E+00
   6.201  0.420E+00  0.308E+00
   6.221  0.429E+00  0.313E+00
   6.241  0.437E+00  0.319E+00
   6.261  0.445E+00  0.325E+00
   6.281  0.454E+00  0.331E+00
   6.301  0.462E+00  0.337E+00
   6.321  0.469E+00  0.342E+00
   6.341  0.477E+00  0.348E+00
   6.361  0.483E+00  0.353E+00
   6.381  0.490E+00  0.357E+00
   6.401  0.496E+00  0.362E+00
   6.421  0.501E+00  0.366E+00
   6.441  0.506E+00  0.369E+00
   6.461  0.510E+00  0.373E+00
   6.481  0.514E+00  0.376E+00
   6.501  0.517E+00  0.378E+00
   6.521  0.520E+00  0.380E+00
   6.541  0.523E+00  0.382E+00
   6.561  0.524E+00  0.384E+00
   6.581  0.526E+00  0.385E+00
   6.601  0.528E+00  0.387E+00
   6.621  0.529E+00  0.388E+00
   6.641  0.530E+00  0.389E+00
   6.661  0.531E+00  0.390E+00
   6.681  0.533E+00  0.391E+00
   6.701  0.534E+00  0.392E+00
   6.721  0.536E+00  0.393E+00
   6.741  0.538E+00  0.395E+00
   6.761  0.540E+00  0.397E+00
   6.781  0.543E+00  0.399E+00
   6.801  0.546E+00  0.401E+00
   6.821  0.550E+00  0.403E+00
   6.841  0.554E+00  0.406E+00
   6.861  0.559E+00  0.409E+00
   6.881  0.564E+00  0.412E+00
   6.901  0.570E+00  0.415E+00
   6.921  0.576E+00  0.419E+00
   6.941  0.582E+00  0.422E+00
   6.961  0.588E+00  0.426E+00
   6.981  0.595E+00  0.430E+00
   7.001  0.602E+00  0.434E+00
   7.021  0.609E+00  0.438E+00
   7.041  0.616E+00  0.442E+00
   7.061  0.623E+00  0.445E+00
   7.081  0.629E+00  0.448E+00
   7.101  0.635E+00  0.451E+00
   7.121  0.641E+00  0.454E+00
   7.141  0.646E+00  0.456E+00
   7.161  0.651E+00  0.458E+00
   7.181  0.655E+00  0.459E+00
   7.201  0.658E+00  0.460E+00
   7.221  0.661E+00  0.461E+00
   7.241  0.663E+00  0.460E+00
   7.261  0.664E+00  0.460E+00
   7.281  0.664E+00  0.458E+00
   7.301  0.664E+00  0.457E+00
   7.321  0.663E+00  0.454E+00
   7.341  0.661E+00  0.451E+00
   7.361  0.658E+00  0.448E+00
   7.381  0.654E+00  0.444E+00
   7.401  0.650E+00  0.440E+00
   7.421  0.646E+00  0.436E+00
   7.441  0.641E+00  0.431E+00
   7.461  0.635E+00  0.426E+00
   7.481  0.629E+00  0.420E+00
   7.501  0.623E+00  0.415E+00
   7.521  0.616E+00  0.409E+00
   7.541  0.609E+00  0.403E+00
   7.561  0.603E+00  0.397E+00
   7.581  0.596E+00  0.391E+00
   7.601  0.589E+00  0.385E+00
   7.621  0.582E+00  0.380E+00
   7.641  0.576E+00  0.374E+00
   7.661  0.569E+00  0.368E+00
   7.681  0.563E+00  0.363E+00
   7.701  0.558E+00  0.357E+00
   7.721  0.552E+00  0.352E+00
   7.741  0.547E+00  0.347E+00
   7.761  0.543E+00  0.343E+00
   7.781  0.539E+00  0.338E+00
   7.801  0.535E+00  0.334E+00
   7.821  0.532E+00  0.330E+00
   7.841  0.530E+00  0.326E+00
   7.861  0.528E+00  0.323E+00
   7.881  0.526E+00  0.320E+00
   7.901  0.525E+00  0.317E+00
   7.921  0.525E+00  0.315E+00
   7.941  0.525E+00  0.312E+00
   7.961  0.525E+00  0.310E+00
   7.981  0.526E+00  0.309E+00
   8.001  0.528E+00  0.307E+00
   8.021  0.529E+00  0.306E+00
   8.041  0.531E+00  0.305E+00
   8.061  0.534E+00  0.304E+00
   8.081  0.536E+00  0.303E+00
   8.101  0.539E+00  0.302E+00
   8.121  0.542E+00  0.302E+00
   8.141  0.544E+00  0.301E+00
   8.161  0.547E+00  0.301E+00
   8.181  0.550E+00  0.300E+00
   8.201  0.553E+00  0.300E+00
   8.221  0.555E+00  0.300E+00
   8.241  0.558E+00  0.299E+00
   8.261  0.560E+00  0.299E+00
   8.281  0.562E+00  0.298E+00
   8.301  0.563E+00  0.298E+00
   8.321  0.564E+00  0.297E+00
   8.341  0.565E+00  0.296E+00
   8.361  0.565E+00  0.295E+00
   8.381  0.565E+00  0.294E+00
   8.401  0.564E+00  0.293E+00
   8.421  0.563E+00  0.292E+00
   8.441  0.561E+00  0.290E+00
   8.461  0.560E+00  0.289E+00
   8.481  0.557E+00  0.287E+00
   8.501  0.555E+00  0.286E+00
   8.521  0.552E+00  0.284E+00
   8.541  0.549E+00  0.283E+00
   8.561  0.545E+00  0.281E+00
   8.581  0.541E+00  0.279E+00
   8.601  0.538E+00  0.277E+00
   8.621  0.534E+00  0.276E+00
   8.641  0.530E+00  0.274E+00
   8.661  0.526E+00  0.272E+00
   8.681  0.522E+00  0.271E+00
   8.701  0.518E+00  0.269E+00
   8.721  0.514E+00  0.268E+00
   8.741  0.510E+00  0.267E+00
   8.761  0.507E+00  0.266E+00
   8.781  0.504E+00  0.265E+00
   8.801  0.501E+00  0.264E+00
   8.821  0.498E+00  0.263E+00
   8.841  0.496E+00  0.263E+00
   8.861  0.494E+00  0.263E+00
   8.881  0.493E+00  0.263E+00
   8.901  0.492E+00  0.263E+00
   8.921  0.491E+00  0.263E+00
   8.941  0.491E+00  0.264E+00
   8.961  0.491E+00  0.265E+00
   8.981  0.492E+00  0.266E+00
   9.001  0.494E+00  0.267E+00
   9.021  0.496E+00  0.269E+00
   9.041  0.498E+00  0.271E+00
   9.061  0.501E+00  0.273E+00
   9.081  0.504E+00  0.275E+00
   9.101  0.508E+00  0.277E+00
   9.121  0.512E+00  0.280E+00
   9.141  0.516E+00  0.283E+00
   9.161  0.521E+00  0.285E+00
   9.181  0.526E+00  0.288E+00
   9.201  0.531E+00  0.291E+00
   9.221  0.536E+00  0.294E+00
   9.241  0.541E+00  0.298E+00
   9.261  0.546E+00  0.301E+00
   9.281  0.552E+00  0.304E+00
   9.301  0.557E+00  0.307E+00
   9.321  0.562E+00  0.310E+00
   9.341  0.567E+00  0.313E+00
   9.361  0.571E+00  0.316E+00
   9.381  0.576E+00  0.319E+00
   9.401  0.580E+00  0.322E+00
   9.421  0.584E+00  0.324E+00
   9.441  0.587E+00  0.327E+00
   9.461  0.591E+00  0.330E+00
   9.481  0.594E+00  0.332E+00
   9.501  0.596E+00  0.334E+00
   9.521  0.599E+00  0.336E+00
   9.541  0.601E+00  0.339E+00
   9.561  0.603E+00  0.341E+00
   9.581  0.605E+00  0.343E+00
   9.601  0.607E+00  0.345E+00
   9.621  0.609E+00  0.347E+00
   9.641  0.610E+00  0.349E+00
   9.661  0.612E+00  0.351E+00
   9.681  0.613E+00  0.353E+00
   9.701  0.615E+00  0.355E+00
   9.721  0.616E+00  0.357E+00
   9.741  0.617E+00  0.359E+00
   9.761  0.619E+00  0.361E+00
   9.781  0.620E+00  0.363E+00
   9.801  0.622E+00  0.365E+00
   9.821  0.623E+00  0.366E+00
   9.841  0.625E+00  0.368E+00
   9.861  0.626E+00  0.370E+00
   9.881  0.628E+00  0.372E+00
   9.901  0.629E+00  0.373E+00
   9.921  0.630E+00  0.375E+00
   9.941  0.632E+00  0.376E+00
   9.961  0.633E+00  0.377E+00
   9.981  0.633E+00  0.379E+00
  10.001  0.634E+00  0.380E+00
  10.021  0.635E+00  0.380E+00
  10.041  0.635E+00  0.381E+00
  10.061  0.635E+00  0.382E+00
  10.081  0.635E+00  0.382E+00
  10.101  0.635E+00  0.383E+00
  10.121  0.635E+00  0.383E+00
  10.141  0.635E+00  0.383E+00
  10.161  0.634E+00  0.384E+00
  10.181  0.634E+00  0.384E+00
  10.201  0.633E+00  0.384E+00
  10.221  0.633E+00  0.384E+00
  10.241  0.632E+00  0.384E+00
  10.261  0.631E+00  0.384E+00
  10.281  0.631E+00  0.385E+00
  10.301  0.630E+00  0.385E+00
  10.321  0.630E+00  0.386E+00
  10.341  0.629E+00  0.386E+00
  10.361  0.629E+00  0.387E+00
  10.381  0.629E+00  0.388E+00
  10.401  0.629E+00  0.389E+00
  10.421  0.630E+00  0.390E+00
  10.441  0.630E+00  0.391E+00
  10.461  0.631E+00  0.392E+00
  10.481  0.632E+00  0.394E+00
  10.501  0.633E+00  0.396E+00
  10.521  0.635E+00  0.398E+00
  10.541  0.637E+00  0.400E+00
  10.561  0.638E+00  0.402E+00
  10.581  0.640E+00  0.404E+00
  10.601  0.643E+00  0.407E+00
  10.621  0.645E+00  0.410E+00
  10.641  0.647E+00  0.412E+00
  10.661  0.650E+00  0.415E+00
  10.681  0.653E+00  0.418E+00
  10.701  0.655E+00  0.421E+00
  10.721  0.658E+00  0.424E+00
  10.741  0.660E+00  0.427E+00
  10.761  0.663E+00  0.430E+00
  10.781  0.665E+00  0.433E+00
  10.801  0.667E+00  0.436E+00
  10.821  0.669E+00  0.439E+00
  10.841  0.671E+00  0.442E+00
  10.861  0.672E+00  0.444E+00
  10.881  0.673E+00  0.446E+00
  10.901  0.673E+00  0.448E+00
  10.921  0.673E+00  0.449E+00
  10.941  0.673E+00  0.451E+00
  10.961  0.672E+00  0.451E+00
  10.981  0.670E+00  0.452E+00
  11.001  0.668E+00  0.452E+00
  11.021  0.666E+00  0.452E+00
  11.041  0.663E+00  0.451E+00
  11.061  0.660E+00  0.450E+00
  11.081  0.657E+00  0.448E+00
  11.101  0.653E+00  0.447E+00
  11.121  0.649E+00  0.445E+00
  11.141  0.644E+00  0.442E+00
  11.161  0.640E+00  0.440E+00
  11.181  0.635E+00  0.437E+00
  11.201  0.631E+00  0.434E+00
  11.221  0.627E+00  0.431E+00
  11.241  0.623E+00  0.428E+00
  11.261  0.619E+00  0.426E+00
  11.281  0.615E+00  0.423E+00
  11.301  0.612E+00  0.420E+00
  11.321  0.609E+00  0.418E+00
  11.341  0.607E+00  0.416E+00
  11.361  0.605E+00  0.414E+00
  11.381  0.603E+00  0.412E+00
  11.401  0.603E+00  0.411E+00
  11.421  0.602E+00  0.410E+00
  11.441  0.602E+00  0.409E+00
  11.461  0.603E+00  0.409E+00
  11.481  0.604E+00  0.409E+00
  11.501  0.605E+00  0.409E+00
  11.521  0.607E+00  0.409E+00
  11.541  0.609E+00  0.410E+00
  11.561  0.612E+00  0.411E+00
  11.581  0.614E+00  0.412E+00
  11.601  0.617E+00  0.414E+00
  11.621  0.620E+00  0.415E+00
  11.641  0.623E+00  0.417E+00
  11.661  0.626E+00  0.419E+00
  11.681  0.628E+00  0.421E+00
  11.701  0.631E+00  0.423E+00
  11.721  0.634E+00  0.425E+00
  11.741  0.637E+00  0.427E+00
  11.761  0.640E+00  0.429E+00
  11.781  0.643E+00  0.432E+00
  11.801  0.646E+00  0.434E+00
  11.821  0.648E+00  0.436E+00
  11.841  0.651E+00  0.439E+00
  11.861  0.654E+00  0.442E+00
  11.881  0.657E+00  0.444E+00
  11.901  0.661E+00  0.447E+00
  11.921  0.664E+00  0.450E+00
  11.941  0.668E+00  0.454E+00
  11.961  0.672E+00  0.457E+00
  11.981  0.676E+00  0.460E+00
  12.001  0.680E+00  0.464E+00
  12.021  0.685E+00  0.468E+00
  12.041  0.689E+00  0.471E+00
  12.061  0.695E+00  0.475E+00
  12.081  0.700E+00  0.479E+00
  12.101  0.706E+00  0.484E+00
  12.121  0.712E+00  0.488E+00
  12.141  0.718E+00  0.492E+00
  12.161  0.724E+00  0.496E+00
  12.181  0.730E+00  0.501E+00
  12.201  0.737E+00  0.505E+00
  12.221  0.744E+00  0.510E+00
  12.241  0.751E+00  0.514E+00
  12.261  0.758E+00  0.519E+00
  12.281  0.765E+00  0.523E+00
  12.301  0.772E+00  0.528E+00
  12.321  0.779E+00  0.532E+00
  12.341  0.786E+00  0.537E+00
  12.361  0.794E+00  0.541E+00
  12.381  0.801E+00  0.546E+00
  12.401  0.808E+00  0.550E+00
  12.421  0.814E+00  0.555E+00
  12.441  0.821E+00  0.559E+00
  12.461  0.828E+00  0.563E+00
  12.481  0.834E+00  0.567E+00
  12.501  0.840E+00  0.571E+00
  12.521  0.846E+00  0.575E+00
  12.541  0.852E+00  0.579E+00
  12.561  0.857E+00  0.583E+00
  12.581  0.862E+00  0.586E+00
  12.601  0.867E+00  0.589E+00
  12.621  0.871E+00  0.592E+00
  12.641  0.875E+00  0.595E+00
  12.661  0.878E+00  0.598E+00
  12.681  0.881E+00  0.600E+00
  12.701  0.884E+00  0.602E+00
  12.721  0.886E+00  0.604E+00
  12.741  0.888E+00  0.606E+00
  12.761  0.890E+00  0.607E+00
  12.781  0.891E+00  0.609E+00
  12.801  0.892E+00  0.610E+00
  12.821  0.892E+00  0.610E+00
  12.841  0.892E+00  0.611E+00
  12.861  0.892E+00  0.611E+00
  12.881  0.892E+00  0.612E+00
  12.901  0.891E+00  0.612E+00
  12.921  0.891E+00  0.612E+00
  12.941  0.890E+00  0.612E+00
  12.961  0.889E+00  0.611E+00
  12.981  0.887E+00  0.611E+00
  13.001  0.886E+00  0.610E+00
  13.021  0.884E+00  0.609E+00
  13.041  0.882E+00  0.608E+00
  13.061  0.880E+00  0.607E+00
  13.081  0.877E+00  0.606E+00
  13.101  0.874E+00  0.604E+00
  13.121  0.871E+00  0.602E+00
  13.141  0.867E+00  0.600E+00
  13.161  0.863E+00  0.597E+00
  13.181  0.859E+00  0.594E+00
  13.201  0.853E+00  0.590E+00
  13.221  0.848E+00  0.587E+00
  13.241  0.842E+00  0.583E+00
  13.261  0.835E+00  0.578E+00
  13.281  0.827E+00  0.573E+00
  13.301  0.820E+00  0.568E+00
  13.321  0.811E+00  0.562E+00
  13.341  0.802E+00  0.556E+00
  13.361  0.792E+00  0.549E+00
  13.381  0.782E+00  0.542E+00
  13.401  0.771E+00  0.535E+00
  13.421  0.760E+00  0.527E+00
  13.441  0.749E+00  0.519E+00
  13.461  0.737E+00  0.511E+00
  13.481  0.724E+00  0.503E+00
  13.501  0.712E+00  0.495E+00
  13.521  0.699E+00  0.486E+00
  13.541  0.686E+00  0.478E+00
  13.561  0.673E+00  0.469E+00
  13.581  0.660E+00  0.460E+00
  13.601  0.646E+00  0.451E+00
  13.621  0.633E+00  0.443E+00
  13.641  0.620E+00  0.434E+00
  13.661  0.606E+00  0.425E+00
  13.681  0.593E+00  0.417E+00
  13.701  0.580E+00  0.408E+00
  13.721  0.567E+00  0.400E+00
  13.741  0.554E+00  0.391E+00
  13.761  0.541E+00  0.383E+00
  13.781  0.529E+00  0.375E+00
  13.801  0.516E+00  0.367E+00
  13.821  0.504E+00  0.360E+00
  13.841  0.493E+00  0.352E+00
  13.861  0.481E+00  0.345E+00
  13.881  0.470E+00  0.338E+00
  13.901  0.460E+00  0.331E+00
  13.921  0.449E+00  0.325E+00
  13.941  0.439E+00  0.319E+00
  13.961  0.430E+00  0.313E+00
  13.981  0.421E+00  0.307E+00
  14.001  0.413E+00  0.302E+00
  14.021  0.405E+00  0.297E+00
  14.041  0.398E+00  0.292E+00
  14.061  0.391E+00  0.288E+00
  14.081  0.384E+00  0.284E+00
  14.101  0.379E+00  0.281E+00
  14.121  0.374E+00  0.278E+00
  14.141  0.369E+00  0.275E+00
  14.161  0.365E+00  0.273E+00
  14.181  0.362E+00  0.271E+00
  14.201  0.359E+00  0.269E+00
  14.221  0.356E+00  0.268E+00
  14.241  0.354E+00  0.267E+00
  14.261  0.352E+00  0.266E+00
  14.281  0.351E+00  0.265E+00
  14.301  0.350E+00  0.265E+00
  14.321  0.349E+00  0.265E+00
  14.341  0.349E+00  0.265E+00
  14.361  0.349E+00  0.265E+00
  14.381  0.349E+00  0.266E+00
  14.401  0.349E+00  0.266E+00
  14.421  0.349E+00  0.267E+00
  14.441  0.350E+00  0.268E+00
  14.461  0.351E+00  0.269E+00
  14.481  0.351E+00  0.270E+00
  14.501  0.352E+00  0.271E+00
  14.521  0.353E+00  0.271E+00
  14.541  0.353E+00  0.272E+00
  14.561  0.354E+00  0.273E+00
  14.581  0.355E+00  0.274E+00
  14.601  0.355E+00  0.275E+00
  14.621  0.356E+00  0.276E+00
  14.641  0.356E+00  0.277E+00
  14.661  0.356E+00  0.277E+00
  14.681  0.356E+00  0.277E+00
  14.701  0.356E+00  0.278E+00
  14.721  0.356E+00  0.278E+00
  14.741  0.355E+00  0.278E+00
  14.761  0.355E+00  0.277E+00
  14.781  0.354E+00  0.277E+00
  14.801  0.352E+00  0.276E+00
  14.821  0.351E+00  0.275E+00
  14.841  0.349E+00  0.274E+00
  14.861  0.347E+00  0.273E+00
  14.881  0.345E+00  0.272E+00
  14.901  0.343E+00  0.270E+00
  14.921  0.341E+00  0.268E+00
  14.941  0.338E+00  0.266E+00
  14.961  0.335E+00  0.264E+00
  14.981  0.333E+00  0.262E+00
  15.001  0.330E+00  0.260E+00
  15.021  0.327E+00  0.258E+00
  15.041  0.324E+00  0.256E+00
  15.061  0.322E+00  0.254E+00
  15.081  0.319E+00  0.252E+00
  15.101  0.317E+00  0.250E+00
  15.121  0.315E+00  0.248E+00
  15.141  0.313E+00  0.246E+00
  15.161  0.311E+00  0.245E+00
  15.181  0.310E+00  0.244E+00
  15.201  0.309E+00  0.243E+00
  15.221  0.308E+00  0.242E+00
  15.241  0.308E+00  0.242E+00
  15.261  0.308E+00  0.242E+00
  15.281  0.309E+00  0.242E+00
  15.301  0.310E+00  0.242E+00
  15.321  0.311E+00  0.243E+00
  15.341  0.312E+00  0.244E+00
  15.361  0.314E+00  0.245E+00
  15.381  0.316E+00  0.247E+00
  15.401  0.319E+00  0.248E+00
  15.421  0.321E+00  0.250E+00
  15.441  0.324E+00  0.252E+00
  15.461  0.327E+00  0.255E+00
  15.481  0.331E+00  0.257E+00
  15.501  0.334E+00  0.260E+00
  15.521  0.338E+00  0.262E+00
  15.541  0.341E+00  0.265E+00
  15.561  0.345E+00  0.268E+00
  15.581  0.349E+00  0.270E+00
  15.601  0.353E+00  0.273E+00
  15.621  0.357E+00  0.276E+00
  15.641  0.361E+00  0.279E+00
  15.661  0.364E+00  0.282E+00
  15.681  0.368E+00  0.285E+00
  15.701  0.372E+00  0.287E+00
  15.721  0.375E+00  0.290E+00
  15.741  0.379E+00  0.292E+00
  15.761  0.382E+00  0.295E+00
  15.781  0.385E+00  0.297E+00
  15.801  0.388E+00  0.299E+00
  15.821  0.391E+00  0.301E+00
  15.841  0.393E+00  0.302E+00
  15.861  0.395E+00  0.304E+00
  15.881  0.397E+00  0.305E+00
  15.901  0.399E+00  0.306E+00
  15.921  0.400E+00  0.307E+00
  15.941  0.401E+00  0.308E+00
  15.961  0.402E+00  0.308E+00
  15.981  0.402E+00  0.308E+00
  16.001  0.402E+00  0.308E+00
  16.021  0.402E+00  0.307E+00
  16.041  0.401E+00  0.306E+00
  16.061  0.401E+00  0.305E+00
  16.081  0.399E+00  0.304E+00
  16.101  0.398E+00  0.303E+00
  16.121  0.396E+00  0.301E+00
  16.141  0.394E+00  0.299E+00
  16.161  0.392E+00  0.298E+00
  16.181  0.390E+00  0.295E+00
  16.201  0.388E+00  0.293E+00
  16.221  0.385E+00  0.291E+00
  16.241  0.383E+00  0.289E+00
  16.261  0.381E+00  0.287E+00
  16.281  0.379E+00  0.285E+00
  16.301  0.377E+00  0.282E+00
  16.321  0.375E+00  0.280E+00
  16.341  0.373E+00  0.279E+00
  16.361  0.372E+00  0.277E+00
  16.381  0.371E+00  0.275E+00
  16.401  0.370E+00  0.274E+00
  16.421  0.369E+00  0.273E+00
  16.441  0.369E+00  0.272E+00
  16.461  0.369E+00  0.271E+00
  16.481  0.369E+00  0.270E+00
  16.501  0.369E+00  0.270E+00
  16.521  0.370E+00  0.270E+00
  16.541  0.371E+00  0.270E+00
  16.561  0.372E+00  0.270E+00
  16.581  0.373E+00  0.270E+00
  16.601  0.374E+00  0.270E+00
  16.621  0.375E+00  0.271E+00
  16.641  0.377E+00  0.271E+00
  16.661  0.378E+00  0.271E+00
  16.681  0.379E+00  0.272E+00
  16.701  0.380E+00  0.272E+00
  16.721  0.380E+00  0.272E+00
  16.741  0.381E+00  0.272E+00
  16.761  0.381E+00  0.272E+00
  16.781  0.381E+00  0.271E+00
  16.801  0.380E+00  0.271E+00
  16.821  0.380E+00  0.270E+00
  16.841  0.378E+00  0.269E+00
  16.861  0.377E+00  0.268E+00
  16.881  0.375E+00  0.267E+00
  16.901  0.373E+00  0.265E+00
  16.921  0.371E+00  0.263E+00
  16.941  0.368E+00  0.261E+00
  16.961  0.365E+00  0.259E+00
  16.981  0.362E+00  0.257E+00
  17.001  0.359E+00  0.255E+00
  17.021  0.355E+00  0.252E+00
  17.041  0.352E+00  0.250E+00
  17.061  0.348E+00  0.247E+00
  17.081  0.345E+00  0.245E+00
  17.101  0.342E+00  0.242E+00
  17.121  0.338E+00  0.240E+00
  17.141  0.335E+00  0.238E+00
  17.161  0.332E+00  0.235E+00
  17.181  0.328E+00  0.233E+00
  17.201  0.325E+00  0.230E+00
  17.221  0.322E+00  0.228E+00
  17.241  0.320E+00  0.226E+00
  17.261  0.317E+00  0.224E+00
  17.281  0.314E+00  0.222E+00
  17.301  0.312E+00  0.220E+00
  17.321  0.309E+00  0.218E+00
  17.341  0.307E+00  0.215E+00
  17.361  0.304E+00  0.213E+00
  17.381  0.302E+00  0.211E+00
  17.401  0.299E+00  0.209E+00
  17.421  0.297E+00  0.207E+00
  17.441  0.294E+00  0.205E+00
  17.461  0.292E+00  0.203E+00
  17.481  0.289E+00  0.200E+00
  17.501  0.286E+00  0.198E+00
  17.521  0.284E+00  0.196E+00
  17.541  0.281E+00  0.193E+00
  17.561  0.278E+00  0.191E+00
  17.581  0.275E+00  0.188E+00
  17.601  0.272E+00  0.186E+00
  17.621  0.269E+00  0.183E+00
  17.641  0.266E+00  0.181E+00
  17.661  0.263E+00  0.178E+00
  17.681  0.260E+00  0.176E+00
  17.701  0.257E+00  0.173E+00
  17.721  0.255E+00  0.171E+00
  17.741  0.252E+00  0.168E+00
  17.761  0.249E+00  0.166E+00
  17.781  0.246E+00  0.164E+00
  17.801  0.243E+00  0.161E+00
  17.821  0.240E+00  0.159E+00
  17.841  0.237E+00  0.156E+00
  17.861  0.235E+00  0.154E+00
  17.881  0.232E+00  0.152E+00
  17.901  0.229E+00  0.149E+00
  17.921  0.226E+00  0.147E+00
  17.941  0.223E+00  0.145E+00
  17.961  0.220E+00  0.142E+00
  17.981  0.218E+00  0.140E+00
  18.001  0.215E+00  0.138E+00
  18.021  0.212E+00  0.135E+00
  18.041  0.209E+00  0.133E+00
  18.061  0.206E+00  0.131E+00
  18.081  0.203E+00  0.128E+00
  18.101  0.200E+00  0.126E+00
  18.121  0.198E+00  0.123E+00
  18.141  0.195E+00  0.121E+00
  18.161  0.193E+00  0.119E+00
  18.181  0.190E+00  0.117E+00
  18.201  0.188E+00  0.115E+00
  18.221  0.186E+00  0.113E+00
  18.241  0.184E+00  0.111E+00
  18.261  0.183E+00  0.109E+00
  18.281  0.181E+00  0.107E+00
  18.301  0.180E+00  0.106E+00
  18.321  0.180E+00  0.105E+00
  18.341  0.179E+00  0.104E+00
  18.361  0.179E+00  0.103E+00
  18.381  0.179E+00  0.102E+00
  18.401  0.180E+00  0.102E+00
  18.421  0.181E+00  0.101E+00
  18.441  0.182E+00  0.101E+00
  18.461  0.183E+00  0.101E+00
  18.481  0.184E+00  0.101E+00
  18.501  0.186E+00  0.101E+00
  18.521  0.187E+00  0.102E+00
  18.541  0.189E+00  0.102E+00
  18.561  0.190E+00  0.102E+00
  18.581  0.191E+00  0.102E+00
  18.601  0.193E+00  0.103E+00
  18.621  0.194E+00  0.103E+00
  18.641  0.195E+00  0.103E+00
  18.661  0.195E+00  0.103E+00
  18.681  0.195E+00  0.102E+00
  18.701  0.195E+00  0.102E+00
  18.721  0.195E+00  0.102E+00
  18.741  0.194E+00  0.101E+00
  18.761  0.193E+00  0.999E-01
  18.781  0.192E+00  0.989E-01
  18.801  0.190E+00  0.976E-01
  18.821  0.188E+00  0.962E-01
  18.841  0.186E+00  0.947E-01
  18.861  0.183E+00  0.930E-01
  18.881  0.181E+00  0.912E-01
  18.901  0.178E+00  0.894E-01
  18.921  0.175E+00  0.874E-01
  18.941  0.172E+00  0.854E-01
  18.961  0.169E+00  0.834E-01
  18.981  0.165E+00  0.814E-01
  19.001  0.162E+00  0.794E-01
  19.021  0.159E+00  0.774E-01
  19.041  0.156E+00  0.755E-01
  19.061  0.154E+00  0.736E-01
  19.081  0.151E+00  0.718E-01
  19.101  0.148E+00  0.701E-01
  19.121  0.146E+00  0.685E-01
  19.141  0.144E+00  0.670E-01
  19.161  0.142E+00  0.655E-01
  19.181  0.140E+00  0.642E-01
  19.201  0.138E+00  0.629E-01
  19.221  0.136E+00  0.618E-01
  19.241  0.134E+00  0.607E-01
  19.261  0.133E+00  0.597E-01
  19.281  0.132E+00  0.588E-01
  19.301  0.130E+00  0.579E-01
  19.321  0.129E+00  0.572E-01
  19.341  0.128E+00  0.564E-01
  19.361  0.127E+00  0.558E-01
  19.381  0.126E+00  0.551E-01
  19.401  0.125E+00  0.545E-01
  19.421  0.124E+00  0.540E-01
  19.441  0.123E+00  0.535E-01
  19.461  0.122E+00  0.530E-01
  19.481  0.121E+00  0.525E-01
  19.501  0.120E+00  0.520E-01
  19.521  0.119E+00  0.516E-01
  19.541  0.118E+00  0.512E-01
  19.561  0.117E+00  0.508E-01
  19.581  0.116E+00  0.504E-01
  19.601  0.115E+00  0.499E-01
  19.621  0.114E+00  0.495E-01
  19.641  0.113E+00  0.491E-01
  19.661  0.112E+00  0.487E-01
  19.681  0.111E+00  0.483E-01
  19.701  0.110E+00  0.478E-01
  19.721  0.109E+00  0.473E-01
  19.741  0.108E+00  0.468E-01
  19.761  0.106E+00  0.463E-01
  19.781  0.105E+00  0.458E-01
  19.801  0.104E+00  0.452E-01
  19.821  0.102E+00  0.446E-01
  19.841  0.101E+00  0.440E-01
  19.861  0.989E-01  0.434E-01
  19.881  0.973E-01  0.427E-01
  19.901  0.956E-01  0.421E-01
  19.921  0.940E-01  0.414E-01
  19.941  0.923E-01  0.407E-01
  19.961  0.906E-01  0.401E-01
  19.981  0.890E-01  0.395E-01
  20.001  0.875E-01  0.389E-01
  20.021  0.860E-01  0.383E-01
  20.041  0.846E-01  0.378E-01
  20.061  0.834E-01  0.373E-01
  20.081  0.823E-01  0.369E-01
  20.101  0.814E-01  0.365E-01
  20.121  0.807E-01  0.363E-01
  20.141  0.802E-01  0.361E-01
  20.161  0.799E-01  0.360E-01
  20.181  0.798E-01  0.360E-01
  20.201  0.800E-01  0.361E-01
  20.221  0.804E-01  0.363E-01
  20.241  0.811E-01  0.365E-01
  20.261  0.820E-01  0.369E-01
  20.281  0.831E-01  0.374E-01
  20.301  0.845E-01  0.379E-01
  20.321  0.860E-01  0.386E-01
  20.341  0.877E-01  0.393E-01
  20.361  0.896E-01  0.400E-01
  20.381  0.915E-01  0.408E-01
  20.401  0.935E-01  0.416E-01
  20.421  0.956E-01  0.424E-01
  20.441  0.977E-01  0.432E-01
  20.461  0.996E-01  0.440E-01
  20.481  0.102E+00  0.448E-01
  20.501  0.103E+00  0.455E-01
  20.521  0.105E+00  0.461E-01
  20.541  0.106E+00  0.466E-01
  20.561  0.107E+00  0.470E-01
  20.581  0.108E+00  0.473E-01
  20.601  0.109E+00  0.474E-01
  20.621  0.109E+00  0.474E-01
  20.641  0.109E+00  0.473E-01
  20.661  0.108E+00  0.470E-01
  20.681  0.108E+00  0.466E-01
  20.701  0.106E+00  0.460E-01
  20.721  0.105E+00  0.453E-01
  20.741  0.103E+00  0.444E-01
  20.761  0.101E+00  0.434E-01
  20.781  0.980E-01  0.423E-01
  20.801  0.952E-01  0.411E-01
  20.821  0.921E-01  0.398E-01
  20.841  0.889E-01  0.385E-01
  20.861  0.856E-01  0.371E-01
  20.881  0.821E-01  0.357E-01
  20.901  0.786E-01  0.343E-01
  20.921  0.751E-01  0.329E-01
  20.941  0.716E-01  0.315E-01
  20.961  0.682E-01  0.302E-01
  20.981  0.650E-01  0.289E-01
  21.001  0.618E-01  0.277E-01
  21.021  0.589E-01  0.267E-01
  21.041  0.562E-01  0.257E-01
  21.061  0.537E-01  0.249E-01
  21.081  0.515E-01  0.242E-01
  21.101  0.495E-01  0.236E-01
  21.121  0.478E-01  0.232E-01
  21.141  0.464E-01  0.229E-01
  21.161  0.453E-01  0.227E-01
  21.181  0.445E-01  0.227E-01
  21.201  0.439E-01  0.228E-01
  21.221  0.436E-01  0.230E-01
  21.241  0.435E-01  0.233E-01
  21.261  0.436E-01  0.237E-01
  21.281  0.439E-01  0.242E-01
  21.301  0.444E-01  0.248E-01
  21.321  0.450E-01  0.254E-01
  21.341  0.458E-01  0.260E-01
  21.361  0.466E-01  0.267E-01
  21.381  0.474E-01  0.274E-01
  21.401  0.483E-01  0.281E-01
  21.421  0.492E-01  0.288E-01
  21.441  0.500E-01  0.294E-01
  21.461  0.508E-01  0.300E-01
  21.481  0.516E-01  0.306E-01
  21.501  0.522E-01  0.311E-01
  21.521  0.528E-01  0.315E-01
  21.541  0.532E-01  0.319E-01
  21.561  0.536E-01  0.322E-01
  21.581  0.538E-01  0.324E-01
  21.601  0.538E-01  0.326E-01
  21.621  0.538E-01  0.326E-01
  21.641  0.536E-01  0.326E-01
  21.661  0.533E-01  0.326E-01
  21.681  0.529E-01  0.325E-01
  21.701  0.524E-01  0.323E-01
  21.721  0.518E-01  0.321E-01
  21.741  0.511E-01  0.319E-01
  21.761  0.503E-01  0.316E-01
  21.781  0.496E-01  0.313E-01
  21.801  0.487E-01  0.311E-01
  21.821  0.479E-01  0.308E-01
  21.841  0.471E-01  0.305E-01
  21.861  0.462E-01  0.303E-01
  21.881  0.454E-01  0.301E-01
  21.901  0.446E-01  0.300E-01
  21.921  0.439E-01  0.299E-01
  21.941  0.433E-01  0.298E-01
  21.961  0.427E-01  0.298E-01
  21.981  0.421E-01  0.298E-01
  22.001  0.416E-01  0.298E-01
  22.021  0.412E-01  0.299E-01
  22.041  0.408E-01  0.301E-01
  22.061  0.405E-01  0.303E-01
  22.081  0.403E-01  0.304E-01
  22.101  0.401E-01  0.306E-01
  22.121  0.399E-01  0.309E-01
  22.141  0.397E-01  0.311E-01
  22.161  0.396E-01  0.313E-01
  22.181  0.395E-01  0.314E-01
  22.201  0.393E-01  0.316E-01
  22.221  0.391E-01  0.317E-01
  22.241  0.389E-01  0.317E-01
  22.261  0.386E-01  0.317E-01
  22.281  0.383E-01  0.316E-01
  22.301  0.380E-01  0.315E-01
  22.321  0.376E-01  0.313E-01
  22.341  0.371E-01  0.310E-01
  22.361  0.365E-01  0.306E-01
  22.381  0.359E-01  0.302E-01
  22.401  0.352E-01  0.297E-01
  22.421  0.345E-01  0.292E-01
  22.441  0.337E-01  0.286E-01
  22.461  0.329E-01  0.279E-01
  22.481  0.320E-01  0.272E-01
  22.501  0.311E-01  0.265E-01
  22.521  0.302E-01  0.257E-01
  22.541  0.293E-01  0.250E-01
  22.561  0.284E-01  0.242E-01
  22.581  0.275E-01  0.235E-01
  22.601  0.266E-01  0.228E-01
  22.621  0.258E-01  0.221E-01
  22.641  0.251E-01  0.215E-01
  22.661  0.244E-01  0.209E-01
  22.681  0.238E-01  0.203E-01
  22.701  0.232E-01  0.199E-01
  22.721  0.228E-01  0.195E-01
  22.741  0.224E-01  0.192E-01
  22.761  0.221E-01  0.189E-01
  22.781  0.219E-01  0.188E-01
  22.801  0.218E-01  0.187E-01
  22.821  0.218E-01  0.187E-01
  22.841  0.219E-01  0.187E-01
  22.861  0.221E-01  0.188E-01
  22.881  0.223E-01  0.190E-01
  22.901  0.225E-01  0.192E-01
  22.921  0.228E-01  0.194E-01
  22.941  0.231E-01  0.197E-01
  22.961  0.235E-01  0.200E-01
  22.981  0.238E-01  0.203E-01
  23.001  0.242E-01  0.206E-01
  23.021  0.245E-01  0.209E-01
  23.041  0.248E-01  0.211E-01
  23.061  0.250E-01  0.213E-01
  23.081  0.252E-01  0.214E-01
  23.101  0.253E-01  0.215E-01
  23.121  0.253E-01  0.215E-01
  23.141  0.252E-01  0.215E-01
  23.161  0.251E-01  0.213E-01
  23.181  0.249E-01  0.211E-01
  23.201  0.245E-01  0.208E-01
  23.221  0.241E-01  0.205E-01
  23.241  0.236E-01  0.200E-01
  23.261  0.230E-01  0.195E-01
  23.281  0.223E-01  0.189E-01
  23.301  0.215E-01  0.183E-01
  23.321  0.207E-01  0.176E-01
  23.341  0.198E-01  0.168E-01
  23.361  0.189E-01  0.160E-01
  23.381  0.179E-01  0.152E-01
  23.401  0.169E-01  0.143E-01
  23.421  0.159E-01  0.135E-01
  23.441  0.148E-01  0.126E-01
  23.461  0.138E-01  0.117E-01
  23.481  0.128E-01  0.109E-01
  23.501  0.118E-01  0.100E-01
  23.521  0.108E-01  0.920E-02
  23.541  0.989E-02  0.840E-02
  23.561  0.899E-02  0.764E-02
  23.581  0.814E-02  0.691E-02
  23.601  0.733E-02  0.623E-02
  23.621  0.657E-02  0.558E-02
  23.641  0.586E-02  0.498E-02
  23.661  0.521E-02  0.442E-02
  23.681  0.460E-02  0.391E-02
  23.701  0.405E-02  0.344E-02
  23.721  0.355E-02  0.302E-02
  23.741  0.310E-02  0.263E-02
  23.761  0.270E-02  0.229E-02
  23.781  0.234E-02  0.199E-02
  23.801  0.203E-02  0.172E-02
  23.821  0.175E-02  0.148E-02
  23.841  0.151E-02  0.128E-02
  23.861  0.130E-02  0.110E-02
  23.881  0.113E-02  0.952E-03
  23.901  0.985E-03  0.828E-03
  23.921  0.866E-03  0.725E-03
  23.941  0.770E-03  0.642E-03
  23.961  0.696E-03  0.577E-03
  23.981  0.642E-03  0.529E-03
  24.001  0.605E-03  0.495E-03
  24.021  0.585E-03  0.474E-03
  24.041  0.578E-03  0.466E-03
  24.061  0.585E-03  0.468E-03
  24.081  0.603E-03  0.480E-03
  24.101  0.632E-03  0.500E-03
  24.121  0.671E-03  0.529E-03
  24.141  0.718E-03  0.564E-03
  24.161  0.772E-03  0.605E-03
  24.181  0.834E-03  0.652E-03
  24.201  0.901E-03  0.704E-03
  24.221  0.972E-03  0.759E-03
  24.241  0.105E-02  0.818E-03
  24.261  0.113E-02  0.879E-03
  24.281  0.121E-02  0.941E-03
  24.301  0.129E-02  0.100E-02
  24.321  0.137E-02  0.107E-02
  24.341  0.145E-02  0.113E-02
  24.361  0.153E-02  0.119E-02
  24.381  0.161E-02  0.125E-02
  24.401  0.168E-02  0.131E-02
  24.421  0.175E-02  0.136E-02
  24.441  0.181E-02  0.141E-02
  24.461  0.186E-02  0.145E-02
  24.481  0.191E-02  0.149E-02
  24.501  0.195E-02  0.152E-02
  24.521  0.198E-02  0.154E-02
  24.541  0.200E-02  0.156E-02
  24.561  0.201E-02  0.157E-02
  24.581  0.201E-02  0.157E-02
  24.601  0.201E-02  0.156E-02
  24.621  0.199E-02  0.155E-02
  24.641  0.196E-02  0.153E-02
  24.661  0.193E-02  0.150E-02
  24.681  0.189E-02  0.147E-02
  24.701  0.183E-02  0.143E-02
  24.721  0.178E-02  0.138E-02
  24.741  0.171E-02  0.133E-02
  24.761  0.164E-02  0.128E-02
  24.781  0.157E-02  0.122E-02
  24.801  0.149E-02  0.116E-02
  24.821  0.140E-02  0.109E-02
  24.841  0.132E-02  0.103E-02
  24.861  0.124E-02  0.963E-03
  24.881  0.115E-02  0.897E-03
  24.901  0.107E-02  0.832E-03
  24.921  0.986E-03  0.768E-03
  24.941  0.905E-03  0.705E-03
  24.961  0.827E-03  0.644E-03
  24.981  0.752E-03  0.586E-03
  25.001  0.681E-03  0.530E-03
  25.021  0.614E-03  0.478E-03
  25.041  0.550E-03  0.428E-03
  25.061  0.491E-03  0.382E-03
  25.081  0.436E-03  0.339E-03
  25.101  0.385E-03  0.300E-03
  25.121  0.339E-03  0.264E-03
  25.141  0.296E-03  0.231E-03
  25.161  0.258E-03  0.201E-03
  25.181  0.224E-03  0.174E-03
  25.201  0.193E-03  0.150E-03
  25.221  0.166E-03  0.129E-03
  25.241  0.142E-03  0.110E-03
  25.261  0.120E-03  0.938E-04
  25.281  0.102E-03  0.794E-04
  25.301  0.858E-04  0.668E-04
  25.321  0.720E-04  0.560E-04
  25.341  0.600E-04  0.467E-04
  25.361  0.498E-04  0.388E-04
  25.381  0.412E-04  0.321E-04
  25.401  0.339E-04  0.264E-04
  25.421  0.277E-04  0.216E-04
  25.441  0.226E-04  0.176E-04
  25.461  0.183E-04  0.142E-04
  25.481  0.147E-04  0.115E-04
  25.501  0.118E-04  0.922E-05
  25.521  0.946E-05  0.737E-05
  25.541  0.752E-05  0.586E-05
  25.561  0.595E-05  0.463E-05
  25.581  0.469E-05  0.365E-05
  25.601  0.367E-05  0.286E-05
  25.621  0.286E-05  0.223E-05
  25.641  0.222E-05  0.173E-05
  25.661  0.172E-05  0.134E-05
  25.681  0.132E-05  0.103E-05
  25.701  0.101E-05  0.787E-06
  25.721  0.769E-06  0.599E-06
  25.741  0.583E-06  0.454E-06
  25.761  0.440E-06  0.342E-06
  25.781  0.330E-06  0.257E-06
  25.801  0.247E-06  0.192E-06
