# E (eV)  dos(E)    pdos(E)
  -4.673  0.783E-06  0.777E-06
  -4.653  0.988E-06  0.980E-06
  -4.633  0.124E-05  0.123E-05
  -4.613  0.156E-05  0.155E-05
  -4.593  0.195E-05  0.194E-05
  -4.573  0.244E-05  0.242E-05
  -4.553  0.304E-05  0.302E-05
  -4.533  0.378E-05  0.375E-05
  -4.513  0.469E-05  0.465E-05
  -4.493  0.580E-05  0.575E-05
  -4.473  0.715E-05  0.709E-05
  -4.453  0.880E-05  0.873E-05
  -4.433  0.108E-04  0.107E-04
  -4.413  0.132E-04  0.131E-04
  -4.393  0.161E-04  0.160E-04
  -4.373  0.197E-04  0.195E-04
  -4.353  0.239E-04  0.237E-04
  -4.333  0.290E-04  0.288E-04
  -4.313  0.350E-04  0.348E-04
  -4.293  0.423E-04  0.420E-04
  -4.273  0.509E-04  0.505E-04
  -4.253  0.611E-04  0.606E-04
  -4.233  0.731E-04  0.726E-04
  -4.213  0.874E-04  0.867E-04
  -4.193  0.104E-03  0.103E-03
  -4.173  0.124E-03  0.123E-03
  -4.153  0.147E-03  0.146E-03
  -4.133  0.174E-03  0.172E-03
  -4.113  0.205E-03  0.203E-03
  -4.093  0.241E-03  0.239E-03
  -4.073  0.283E-03  0.281E-03
  -4.053  0.332E-03  0.329E-03
  -4.033  0.388E-03  0.385E-03
  -4.013  0.452E-03  0.449E-03
  -3.993  0.526E-03  0.522E-03
  -3.973  0.611E-03  0.606E-03
  -3.953  0.707E-03  0.702E-03
  -3.933  0.817E-03  0.811E-03
  -3.913  0.941E-03  0.934E-03
  -3.893  0.108E-02  0.107E-02
  -3.873  0.124E-02  0.123E-02
  -3.853  0.142E-02  0.141E-02
  -3.833  0.162E-02  0.161E-02
  -3.813  0.185E-02  0.183E-02
  -3.793  0.210E-02  0.209E-02
  -3.773  0.238E-02  0.236E-02
  -3.753  0.270E-02  0.268E-02
  -3.733  0.304E-02  0.302E-02
  -3.713  0.343E-02  0.340E-02
  -3.693  0.385E-02  0.382E-02
  -3.673  0.432E-02  0.429E-02
  -3.653  0.483E-02  0.480E-02
  -3.633  0.540E-02  0.536E-02
  -3.613  0.601E-02  0.597E-02
  -3.593  0.668E-02  0.663E-02
  -3.573  0.741E-02  0.736E-02
  -3.553  0.821E-02  0.815E-02
  -3.533  0.907E-02  0.900E-02
  -3.513  0.999E-02  0.992E-02
  -3.493  0.110E-01  0.109E-01
  -3.473  0.121E-01  0.120E-01
  -3.453  0.132E-01  0.131E-01
  -3.433  0.144E-01  0.143E-01
  -3.413  0.158E-01  0.156E-01
  -3.393  0.172E-01  0.170E-01
  -3.373  0.186E-01  0.185E-01
  -3.353  0.202E-01  0.201E-01
  -3.333  0.219E-01  0.217E-01
  -3.313  0.236E-01  0.235E-01
  -3.293  0.255E-01  0.253E-01
  -3.273  0.274E-01  0.272E-01
  -3.253  0.295E-01  0.292E-01
  -3.233  0.316E-01  0.314E-01
  -3.213  0.338E-01  0.336E-01
  -3.193  0.361E-01  0.359E-01
  -3.173  0.385E-01  0.382E-01
  -3.153  0.410E-01  0.407E-01
  -3.133  0.436E-01  0.433E-01
  -3.113  0.462E-01  0.459E-01
  -3.093  0.490E-01  0.486E-01
  -3.073  0.518E-01  0.514E-01
  -3.053  0.547E-01  0.543E-01
  -3.033  0.576E-01  0.572E-01
  -3.013  0.606E-01  0.602E-01
  -2.993  0.637E-01  0.633E-01
  -2.973  0.669E-01  0.664E-01
  -2.953  0.700E-01  0.695E-01
  -2.933  0.733E-01  0.727E-01
  -2.913  0.766E-01  0.760E-01
  -2.893  0.799E-01  0.793E-01
  -2.873  0.832E-01  0.826E-01
  -2.853  0.866E-01  0.859E-01
  -2.833  0.900E-01  0.893E-01
  -2.813  0.934E-01  0.927E-01
  -2.793  0.968E-01  0.961E-01
  -2.773  0.100E+00  0.995E-01
  -2.753  0.104E+00  0.103E+00
  -2.733  0.107E+00  0.106E+00
  -2.713  0.110E+00  0.110E+00
  -2.693  0.114E+00  0.113E+00
  -2.673  0.117E+00  0.116E+00
  -2.653  0.121E+00  0.120E+00
  -2.633  0.124E+00  0.123E+00
  -2.613  0.127E+00  0.126E+00
  -2.593  0.130E+00  0.130E+00
  -2.573  0.134E+00  0.133E+00
  -2.553  0.137E+00  0.136E+00
  -2.533  0.140E+00  0.139E+00
  -2.513  0.143E+00  0.142E+00
  -2.493  0.146E+00  0.145E+00
  -2.473  0.149E+00  0.148E+00
  -2.453  0.152E+00  0.151E+00
  -2.433  0.155E+00  0.154E+00
  -2.413  0.158E+00  0.157E+00
  -2.393  0.161E+00  0.160E+00
  -2.373  0.164E+00  0.163E+00
  -2.353  0.167E+00  0.166E+00
  -2.333  0.170E+00  0.168E+00
  -2.313  0.172E+00  0.171E+00
  -2.293  0.175E+00  0.174E+00
  -2.273  0.178E+00  0.176E+00
  -2.253  0.180E+00  0.179E+00
  -2.233  0.183E+00  0.182E+00
  -2.213  0.185E+00  0.184E+00
  -2.193  0.188E+00  0.187E+00
  -2.173  0.190E+00  0.189E+00
  -2.153  0.193E+00  0.191E+00
  -2.133  0.195E+00  0.194E+00
  -2.113  0.198E+00  0.196E+00
  -2.093  0.200E+00  0.198E+00
  -2.073  0.202E+00  0.201E+00
  -2.053  0.205E+00  0.203E+00
  -2.033  0.207E+00  0.205E+00
  -2.013  0.209E+00  0.207E+00
  -1.993  0.211E+00  0.209E+00
  -1.973  0.213E+00  0.211E+00
  -1.953  0.215E+00  0.214E+00
  -1.933  0.218E+00  0.216E+00
  -1.913  0.220E+00  0.218E+00
  -1.893  0.222E+00  0.220E+00
  -1.873  0.224E+00  0.222E+00
  -1.853  0.226E+00  0.224E+00
  -1.833  0.228E+00  0.226E+00
  -1.813  0.230E+00  0.228E+00
  -1.793  0.232E+00  0.230E+00
  -1.773  0.234E+00  0.231E+00
  -1.753  0.236E+00  0.233E+00
  -1.733  0.238E+00  0.235E+00
  -1.713  0.240E+00  0.237E+00
  -1.693  0.241E+00  0.239E+00
  -1.673  0.243E+00  0.241E+00
  -1.653  0.245E+00  0.243E+00
  -1.633  0.247E+00  0.244E+00
  -1.613  0.249E+00  0.246E+00
  -1.593  0.251E+00  0.248E+00
  -1.573  0.253E+00  0.250E+00
  -1.553  0.254E+00  0.252E+00
  -1.533  0.256E+00  0.253E+00
  -1.513  0.258E+00  0.255E+00
  -1.493  0.260E+00  0.257E+00
  -1.473  0.262E+00  0.258E+00
  -1.453  0.263E+00  0.260E+00
  -1.433  0.265E+00  0.262E+00
  -1.413  0.267E+00  0.264E+00
  -1.393  0.269E+00  0.265E+00
  -1.373  0.270E+00  0.267E+00
  -1.353  0.272E+00  0.269E+00
  -1.333  0.274E+00  0.270E+00
  -1.313  0.275E+00  0.272E+00
  -1.293  0.277E+00  0.273E+00
  -1.273  0.279E+00  0.275E+00
  -1.253  0.281E+00  0.277E+00
  -1.233  0.282E+00  0.278E+00
  -1.213  0.284E+00  0.280E+00
  -1.193  0.286E+00  0.282E+00
  -1.173  0.287E+00  0.283E+00
  -1.153  0.289E+00  0.285E+00
  -1.133  0.291E+00  0.286E+00
  -1.113  0.292E+00  0.288E+00
  -1.093  0.294E+00  0.290E+00
  -1.073  0.296E+00  0.291E+00
  -1.053  0.297E+00  0.293E+00
  -1.033  0.299E+00  0.294E+00
  -1.013  0.301E+00  0.296E+00
  -0.993  0.302E+00  0.297E+00
  -0.973  0.304E+00  0.299E+00
  -0.953  0.306E+00  0.301E+00
  -0.933  0.307E+00  0.302E+00
  -0.913  0.309E+00  0.304E+00
  -0.893  0.311E+00  0.305E+00
  -0.873  0.312E+00  0.307E+00
  -0.853  0.314E+00  0.308E+00
  -0.833  0.316E+00  0.310E+00
  -0.813  0.317E+00  0.312E+00
  -0.793  0.319E+00  0.313E+00
  -0.773  0.321E+00  0.315E+00
  -0.753  0.322E+00  0.316E+00
  -0.733  0.324E+00  0.318E+00
  -0.713  0.326E+00  0.319E+00
  -0.693  0.327E+00  0.321E+00
  -0.673  0.329E+00  0.323E+00
  -0.653  0.331E+00  0.324E+00
  -0.633  0.332E+00  0.326E+00
  -0.613  0.334E+00  0.327E+00
  -0.593  0.336E+00  0.329E+00
  -0.573  0.337E+00  0.330E+00
  -0.553  0.339E+00  0.332E+00
  -0.533  0.341E+00  0.334E+00
  -0.513  0.343E+00  0.335E+00
  -0.493  0.344E+00  0.337E+00
  -0.473  0.346E+00  0.338E+00
  -0.453  0.348E+00  0.340E+00
  -0.433  0.350E+00  0.342E+00
  -0.413  0.351E+00  0.343E+00
  -0.393  0.353E+00  0.345E+00
  -0.373  0.355E+00  0.346E+00
  -0.353  0.357E+00  0.348E+00
  -0.333  0.359E+00  0.350E+00
  -0.313  0.361E+00  0.351E+00
  -0.293  0.363E+00  0.353E+00
  -0.273  0.365E+00  0.355E+00
  -0.253  0.366E+00  0.356E+00
  -0.233  0.368E+00  0.358E+00
  -0.213  0.370E+00  0.360E+00
  -0.193  0.372E+00  0.362E+00
  -0.173  0.375E+00  0.363E+00
  -0.153  0.377E+00  0.365E+00
  -0.133  0.379E+00  0.367E+00
  -0.113  0.381E+00  0.369E+00
  -0.093  0.383E+00  0.370E+00
  -0.073  0.385E+00  0.372E+00
  -0.053  0.387E+00  0.374E+00
  -0.033  0.390E+00  0.376E+00
  -0.013  0.392E+00  0.378E+00
   0.007  0.394E+00  0.380E+00
   0.027  0.397E+00  0.382E+00
   0.047  0.399E+00  0.384E+00
   0.067  0.402E+00  0.386E+00
   0.087  0.404E+00  0.387E+00
   0.107  0.407E+00  0.389E+00
   0.127  0.409E+00  0.392E+00
   0.147  0.412E+00  0.394E+00
   0.167  0.415E+00  0.396E+00
   0.187  0.417E+00  0.398E+00
   0.207  0.420E+00  0.400E+00
   0.227  0.423E+00  0.402E+00
   0.247  0.426E+00  0.404E+00
   0.267  0.429E+00  0.406E+00
   0.287  0.432E+00  0.409E+00
   0.307  0.434E+00  0.411E+00
   0.327  0.437E+00  0.413E+00
   0.347  0.440E+00  0.415E+00
   0.367  0.443E+00  0.417E+00
   0.387  0.446E+00  0.420E+00
   0.407  0.449E+00  0.422E+00
   0.427  0.452E+00  0.424E+00
   0.447  0.455E+00  0.426E+00
   0.467  0.458E+00  0.428E+00
   0.487  0.461E+00  0.431E+00
   0.507  0.464E+00  0.433E+00
   0.527  0.467E+00  0.435E+00
   0.547  0.470E+00  0.437E+00
   0.567  0.472E+00  0.439E+00
   0.587  0.475E+00  0.441E+00
   0.607  0.478E+00  0.443E+00
   0.627  0.480E+00  0.445E+00
   0.647  0.483E+00  0.446E+00
   0.667  0.485E+00  0.448E+00
   0.687  0.487E+00  0.449E+00
   0.707  0.489E+00  0.451E+00
   0.727  0.491E+00  0.452E+00
   0.747  0.493E+00  0.454E+00
   0.767  0.494E+00  0.455E+00
   0.787  0.496E+00  0.456E+00
   0.807  0.497E+00  0.457E+00
   0.827  0.498E+00  0.457E+00
   0.847  0.499E+00  0.458E+00
   0.867  0.500E+00  0.459E+00
   0.887  0.501E+00  0.459E+00
   0.907  0.501E+00  0.459E+00
   0.927  0.502E+00  0.459E+00
   0.947  0.502E+00  0.459E+00
   0.967  0.502E+00  0.459E+00
   0.987  0.502E+00  0.459E+00
   1.007  0.501E+00  0.458E+00
   1.027  0.501E+00  0.458E+00
   1.047  0.500E+00  0.457E+00
   1.067  0.499E+00  0.456E+00
   1.087  0.498E+00  0.455E+00
   1.107  0.496E+00  0.453E+00
   1.127  0.495E+00  0.452E+00
   1.147  0.493E+00  0.450E+00
   1.167  0.491E+00  0.449E+00
   1.187  0.489E+00  0.447E+00
   1.207  0.487E+00  0.445E+00
   1.227  0.485E+00  0.442E+00
   1.247  0.482E+00  0.440E+00
   1.267  0.480E+00  0.438E+00
   1.287  0.477E+00  0.435E+00
   1.307  0.474E+00  0.432E+00
   1.327  0.471E+00  0.429E+00
   1.347  0.468E+00  0.426E+00
   1.367  0.465E+00  0.423E+00
   1.387  0.461E+00  0.420E+00
   1.407  0.458E+00  0.416E+00
   1.427  0.454E+00  0.413E+00
   1.447  0.450E+00  0.409E+00
   1.467  0.447E+00  0.406E+00
   1.487  0.443E+00  0.402E+00
   1.507  0.439E+00  0.398E+00
   1.527  0.435E+00  0.394E+00
   1.547  0.431E+00  0.391E+00
   1.567  0.427E+00  0.387E+00
   1.587  0.423E+00  0.383E+00
   1.607  0.419E+00  0.379E+00
   1.627  0.415E+00  0.374E+00
   1.647  0.411E+00  0.370E+00
   1.667  0.407E+00  0.366E+00
   1.687  0.403E+00  0.362E+00
   1.707  0.399E+00  0.358E+00
   1.727  0.395E+00  0.354E+00
   1.747  0.391E+00  0.349E+00
   1.767  0.387E+00  0.345E+00
   1.787  0.382E+00  0.341E+00
   1.807  0.378E+00  0.336E+00
   1.827  0.374E+00  0.332E+00
   1.847  0.370E+00  0.328E+00
   1.867  0.366E+00  0.323E+00
   1.887  0.362E+00  0.319E+00
   1.907  0.357E+00  0.314E+00
   1.927  0.353E+00  0.310E+00
   1.947  0.349E+00  0.305E+00
   1.967  0.344E+00  0.301E+00
   1.987  0.340E+00  0.296E+00
   2.007  0.336E+00  0.292E+00
   2.027  0.332E+00  0.287E+00
   2.047  0.327E+00  0.283E+00
   2.067  0.323E+00  0.278E+00
   2.087  0.319E+00  0.273E+00
   2.107  0.314E+00  0.269E+00
   2.127  0.310E+00  0.264E+00
   2.147  0.305E+00  0.259E+00
   2.167  0.301E+00  0.255E+00
   2.187  0.297E+00  0.250E+00
   2.207  0.292E+00  0.245E+00
   2.227  0.288E+00  0.241E+00
   2.247  0.284E+00  0.236E+00
   2.267  0.280E+00  0.232E+00
   2.287  0.275E+00  0.227E+00
   2.307  0.271E+00  0.223E+00
   2.327  0.267E+00  0.218E+00
   2.347  0.263E+00  0.214E+00
   2.367  0.259E+00  0.210E+00
   2.387  0.255E+00  0.205E+00
   2.407  0.251E+00  0.201E+00
   2.427  0.247E+00  0.197E+00
   2.447  0.243E+00  0.193E+00
   2.467  0.239E+00  0.189E+00
   2.487  0.235E+00  0.184E+00
   2.507  0.232E+00  0.180E+00
   2.527  0.228E+00  0.177E+00
   2.547  0.224E+00  0.173E+00
   2.567  0.221E+00  0.169E+00
   2.587  0.217E+00  0.165E+00
   2.607  0.214E+00  0.161E+00
   2.627  0.210E+00  0.158E+00
   2.647  0.207E+00  0.154E+00
   2.667  0.204E+00  0.151E+00
   2.687  0.201E+00  0.147E+00
   2.707  0.198E+00  0.144E+00
   2.727  0.195E+00  0.141E+00
   2.747  0.192E+00  0.138E+00
   2.767  0.189E+00  0.135E+00
   2.787  0.186E+00  0.132E+00
   2.807  0.184E+00  0.129E+00
   2.827  0.181E+00  0.126E+00
   2.847  0.179E+00  0.124E+00
   2.867  0.177E+00  0.121E+00
   2.887  0.175E+00  0.119E+00
   2.907  0.173E+00  0.117E+00
   2.927  0.172E+00  0.115E+00
   2.947  0.171E+00  0.113E+00
   2.967  0.170E+00  0.112E+00
   2.987  0.169E+00  0.110E+00
   3.007  0.168E+00  0.109E+00
   3.027  0.168E+00  0.108E+00
   3.047  0.168E+00  0.108E+00
   3.067  0.168E+00  0.107E+00
   3.087  0.169E+00  0.107E+00
   3.107  0.170E+00  0.107E+00
   3.127  0.171E+00  0.108E+00
   3.147  0.172E+00  0.108E+00
   3.167  0.174E+00  0.109E+00
   3.187  0.177E+00  0.111E+00
   3.207  0.179E+00  0.112E+00
   3.227  0.182E+00  0.114E+00
   3.247  0.186E+00  0.116E+00
   3.267  0.189E+00  0.119E+00
   3.287  0.193E+00  0.122E+00
   3.307  0.198E+00  0.125E+00
   3.327  0.203E+00  0.129E+00
   3.347  0.208E+00  0.133E+00
   3.367  0.214E+00  0.137E+00
   3.387  0.220E+00  0.141E+00
   3.407  0.226E+00  0.146E+00
   3.427  0.233E+00  0.152E+00
   3.447  0.240E+00  0.157E+00
   3.467  0.248E+00  0.163E+00
   3.487  0.256E+00  0.170E+00
   3.507  0.264E+00  0.176E+00
   3.527  0.272E+00  0.183E+00
   3.547  0.281E+00  0.190E+00
   3.567  0.290E+00  0.197E+00
   3.587  0.300E+00  0.205E+00
   3.607  0.310E+00  0.213E+00
   3.627  0.319E+00  0.221E+00
   3.647  0.329E+00  0.229E+00
   3.667  0.340E+00  0.238E+00
   3.687  0.350E+00  0.246E+00
   3.707  0.360E+00  0.255E+00
   3.727  0.371E+00  0.263E+00
   3.747  0.381E+00  0.272E+00
   3.767  0.392E+00  0.281E+00
   3.787  0.403E+00  0.289E+00
   3.807  0.413E+00  0.298E+00
   3.827  0.423E+00  0.306E+00
   3.847  0.433E+00  0.315E+00
   3.867  0.443E+00  0.323E+00
   3.887  0.453E+00  0.331E+00
   3.907  0.463E+00  0.339E+00
   3.927  0.472E+00  0.346E+00
   3.947  0.481E+00  0.353E+00
   3.967  0.489E+00  0.360E+00
   3.987  0.497E+00  0.367E+00
   4.007  0.505E+00  0.374E+00
   4.027  0.513E+00  0.380E+00
   4.047  0.520E+00  0.385E+00
   4.067  0.526E+00  0.390E+00
   4.087  0.532E+00  0.395E+00
   4.107  0.538E+00  0.400E+00
   4.127  0.543E+00  0.404E+00
   4.147  0.547E+00  0.407E+00
   4.167  0.551E+00  0.411E+00
   4.187  0.555E+00  0.413E+00
   4.207  0.558E+00  0.416E+00
   4.227  0.561E+00  0.418E+00
   4.247  0.563E+00  0.420E+00
   4.267  0.564E+00  0.421E+00
   4.287  0.566E+00  0.422E+00
   4.307  0.567E+00  0.422E+00
   4.327  0.567E+00  0.423E+00
   4.347  0.567E+00  0.423E+00
   4.367  0.567E+00  0.422E+00
   4.387  0.566E+00  0.422E+00
   4.407  0.565E+00  0.421E+00
   4.427  0.564E+00  0.420E+00
   4.447  0.563E+00  0.418E+00
   4.467  0.561E+00  0.417E+00
   4.487  0.559E+00  0.415E+00
   4.507  0.556E+00  0.413E+00
   4.527  0.554E+00  0.411E+00
   4.547  0.551E+00  0.409E+00
   4.567  0.549E+00  0.407E+00
   4.587  0.546E+00  0.404E+00
   4.607  0.543E+00  0.402E+00
   4.627  0.539E+00  0.399E+00
   4.647  0.536E+00  0.397E+00
   4.667  0.533E+00  0.394E+00
   4.687  0.530E+00  0.392E+00
   4.707  0.526E+00  0.389E+00
   4.727  0.523E+00  0.386E+00
   4.747  0.519E+00  0.384E+00
   4.767  0.516E+00  0.381E+00
   4.787  0.512E+00  0.378E+00
   4.807  0.509E+00  0.376E+00
   4.827  0.505E+00  0.373E+00
   4.847  0.502E+00  0.371E+00
   4.867  0.499E+00  0.368E+00
   4.887  0.495E+00  0.366E+00
   4.907  0.492E+00  0.363E+00
   4.927  0.489E+00  0.361E+00
   4.947  0.486E+00  0.359E+00
   4.967  0.483E+00  0.357E+00
   4.987  0.480E+00  0.354E+00
   5.007  0.477E+00  0.352E+00
   5.027  0.474E+00  0.350E+00
   5.047  0.471E+00  0.348E+00
   5.067  0.468E+00  0.346E+00
   5.087  0.465E+00  0.345E+00
   5.107  0.463E+00  0.343E+00
   5.127  0.460E+00  0.341E+00
   5.147  0.458E+00  0.339E+00
   5.167  0.455E+00  0.338E+00
   5.187  0.453E+00  0.336E+00
   5.207  0.450E+00  0.335E+00
   5.227  0.448E+00  0.333E+00
   5.247  0.446E+00  0.331E+00
   5.267  0.444E+00  0.330E+00
   5.287  0.442E+00  0.329E+00
   5.307  0.440E+00  0.327E+00
   5.327  0.438E+00  0.326E+00
   5.347  0.436E+00  0.324E+00
   5.367  0.434E+00  0.323E+00
   5.387  0.432E+00  0.322E+00
   5.407  0.430E+00  0.321E+00
   5.427  0.428E+00  0.319E+00
   5.447  0.426E+00  0.318E+00
   5.467  0.424E+00  0.317E+00
   5.487  0.423E+00  0.316E+00
   5.507  0.421E+00  0.314E+00
   5.527  0.420E+00  0.313E+00
   5.547  0.418E+00  0.312E+00
   5.567  0.417E+00  0.311E+00
   5.587  0.415E+00  0.310E+00
   5.607  0.414E+00  0.309E+00
   5.627  0.413E+00  0.308E+00
   5.647  0.412E+00  0.307E+00
   5.667  0.411E+00  0.307E+00
   5.687  0.410E+00  0.306E+00
   5.707  0.409E+00  0.305E+00
   5.727  0.408E+00  0.305E+00
   5.747  0.408E+00  0.304E+00
   5.767  0.408E+00  0.304E+00
   5.787  0.407E+00  0.303E+00
   5.807  0.407E+00  0.303E+00
   5.827  0.407E+00  0.303E+00
   5.847  0.408E+00  0.303E+00
   5.867  0.408E+00  0.303E+00
   5.887  0.408E+00  0.303E+00
   5.907  0.409E+00  0.304E+00
   5.927  0.410E+00  0.304E+00
   5.947  0.411E+00  0.305E+00
   5.967  0.412E+00  0.305E+00
   5.987  0.414E+00  0.306E+00
   6.007  0.415E+00  0.307E+00
   6.027  0.417E+00  0.308E+00
   6.047  0.419E+00  0.309E+00
   6.067  0.421E+00  0.311E+00
   6.087  0.423E+00  0.312E+00
   6.107  0.426E+00  0.314E+00
   6.127  0.428E+00  0.315E+00
   6.147  0.431E+00  0.317E+00
   6.167  0.434E+00  0.319E+00
   6.187  0.437E+00  0.321E+00
   6.207  0.440E+00  0.323E+00
   6.227  0.443E+00  0.326E+00
   6.247  0.447E+00  0.328E+00
   6.267  0.450E+00  0.330E+00
   6.287  0.454E+00  0.333E+00
   6.307  0.458E+00  0.336E+00
   6.327  0.462E+00  0.338E+00
   6.347  0.466E+00  0.341E+00
   6.367  0.470E+00  0.344E+00
   6.387  0.474E+00  0.347E+00
   6.407  0.478E+00  0.350E+00
   6.427  0.482E+00  0.353E+00
   6.447  0.486E+00  0.356E+00
   6.467  0.491E+00  0.359E+00
   6.487  0.495E+00  0.362E+00
   6.507  0.500E+00  0.365E+00
   6.527  0.504E+00  0.368E+00
   6.547  0.508E+00  0.372E+00
   6.567  0.513E+00  0.375E+00
   6.587  0.517E+00  0.378E+00
   6.607  0.522E+00  0.381E+00
   6.627  0.526E+00  0.384E+00
   6.647  0.531E+00  0.387E+00
   6.667  0.535E+00  0.390E+00
   6.687  0.540E+00  0.393E+00
   6.707  0.544E+00  0.396E+00
   6.727  0.548E+00  0.399E+00
   6.747  0.552E+00  0.402E+00
   6.767  0.557E+00  0.404E+00
   6.787  0.561E+00  0.407E+00
   6.807  0.565E+00  0.409E+00
   6.827  0.569E+00  0.412E+00
   6.847  0.573E+00  0.414E+00
   6.867  0.576E+00  0.416E+00
   6.887  0.580E+00  0.418E+00
   6.907  0.583E+00  0.420E+00
   6.927  0.587E+00  0.422E+00
   6.947  0.590E+00  0.423E+00
   6.967  0.593E+00  0.425E+00
   6.987  0.595E+00  0.426E+00
   7.007  0.598E+00  0.427E+00
   7.027  0.600E+00  0.428E+00
   7.047  0.603E+00  0.429E+00
   7.067  0.605E+00  0.429E+00
   7.087  0.606E+00  0.429E+00
   7.107  0.608E+00  0.430E+00
   7.127  0.609E+00  0.429E+00
   7.147  0.610E+00  0.429E+00
   7.167  0.611E+00  0.429E+00
   7.187  0.612E+00  0.428E+00
   7.207  0.612E+00  0.427E+00
   7.227  0.613E+00  0.426E+00
   7.247  0.613E+00  0.425E+00
   7.267  0.613E+00  0.424E+00
   7.287  0.612E+00  0.422E+00
   7.307  0.612E+00  0.420E+00
   7.327  0.611E+00  0.418E+00
   7.347  0.611E+00  0.416E+00
   7.367  0.610E+00  0.414E+00
   7.387  0.609E+00  0.412E+00
   7.407  0.607E+00  0.410E+00
   7.427  0.606E+00  0.407E+00
   7.447  0.605E+00  0.405E+00
   7.467  0.603E+00  0.402E+00
   7.487  0.602E+00  0.400E+00
   7.507  0.600E+00  0.397E+00
   7.527  0.599E+00  0.394E+00
   7.547  0.597E+00  0.391E+00
   7.567  0.596E+00  0.389E+00
   7.587  0.594E+00  0.386E+00
   7.607  0.592E+00  0.383E+00
   7.627  0.591E+00  0.380E+00
   7.647  0.589E+00  0.377E+00
   7.667  0.588E+00  0.374E+00
   7.687  0.586E+00  0.371E+00
   7.707  0.584E+00  0.369E+00
   7.727  0.583E+00  0.366E+00
   7.747  0.581E+00  0.363E+00
   7.767  0.580E+00  0.360E+00
   7.787  0.578E+00  0.357E+00
   7.807  0.577E+00  0.355E+00
   7.827  0.575E+00  0.352E+00
   7.847  0.573E+00  0.349E+00
   7.867  0.572E+00  0.347E+00
   7.887  0.570E+00  0.344E+00
   7.907  0.569E+00  0.341E+00
   7.927  0.567E+00  0.339E+00
   7.947  0.565E+00  0.336E+00
   7.967  0.564E+00  0.333E+00
   7.987  0.562E+00  0.331E+00
   8.007  0.560E+00  0.328E+00
   8.027  0.558E+00  0.325E+00
   8.047  0.557E+00  0.323E+00
   8.067  0.555E+00  0.320E+00
   8.087  0.553E+00  0.318E+00
   8.107  0.551E+00  0.315E+00
   8.127  0.549E+00  0.313E+00
   8.147  0.548E+00  0.310E+00
   8.167  0.546E+00  0.308E+00
   8.187  0.544E+00  0.305E+00
   8.207  0.542E+00  0.303E+00
   8.227  0.540E+00  0.301E+00
   8.247  0.539E+00  0.299E+00
   8.267  0.537E+00  0.296E+00
   8.287  0.535E+00  0.294E+00
   8.307  0.534E+00  0.292E+00
   8.327  0.532E+00  0.290E+00
   8.347  0.531E+00  0.288E+00
   8.367  0.530E+00  0.287E+00
   8.387  0.528E+00  0.285E+00
   8.407  0.527E+00  0.283E+00
   8.427  0.526E+00  0.282E+00
   8.447  0.525E+00  0.280E+00
   8.467  0.524E+00  0.279E+00
   8.487  0.523E+00  0.278E+00
   8.507  0.522E+00  0.277E+00
   8.527  0.522E+00  0.276E+00
   8.547  0.521E+00  0.275E+00
   8.567  0.521E+00  0.274E+00
   8.587  0.520E+00  0.273E+00
   8.607  0.520E+00  0.273E+00
   8.627  0.520E+00  0.272E+00
   8.647  0.520E+00  0.272E+00
   8.667  0.520E+00  0.272E+00
   8.687  0.520E+00  0.272E+00
   8.707  0.520E+00  0.272E+00
   8.727  0.520E+00  0.272E+00
   8.747  0.521E+00  0.272E+00
   8.767  0.521E+00  0.272E+00
   8.787  0.522E+00  0.273E+00
   8.807  0.522E+00  0.273E+00
   8.827  0.523E+00  0.274E+00
   8.847  0.523E+00  0.274E+00
   8.867  0.524E+00  0.275E+00
   8.887  0.525E+00  0.276E+00
   8.907  0.526E+00  0.277E+00
   8.927  0.527E+00  0.278E+00
   8.947  0.528E+00  0.279E+00
   8.967  0.529E+00  0.280E+00
   8.987  0.530E+00  0.282E+00
   9.007  0.531E+00  0.283E+00
   9.027  0.533E+00  0.284E+00
   9.047  0.534E+00  0.286E+00
   9.067  0.536E+00  0.288E+00
   9.087  0.537E+00  0.289E+00
   9.107  0.539E+00  0.291E+00
   9.127  0.541E+00  0.293E+00
   9.147  0.543E+00  0.295E+00
   9.167  0.544E+00  0.296E+00
   9.187  0.546E+00  0.298E+00
   9.207  0.548E+00  0.300E+00
   9.227  0.551E+00  0.302E+00
   9.247  0.553E+00  0.304E+00
   9.267  0.555E+00  0.307E+00
   9.287  0.557E+00  0.309E+00
   9.307  0.559E+00  0.311E+00
   9.327  0.562E+00  0.313E+00
   9.347  0.564E+00  0.315E+00
   9.367  0.566E+00  0.317E+00
   9.387  0.569E+00  0.319E+00
   9.407  0.571E+00  0.322E+00
   9.427  0.573E+00  0.324E+00
   9.447  0.576E+00  0.326E+00
   9.467  0.578E+00  0.328E+00
   9.487  0.580E+00  0.330E+00
   9.507  0.583E+00  0.332E+00
   9.527  0.585E+00  0.334E+00
   9.547  0.587E+00  0.336E+00
   9.567  0.589E+00  0.338E+00
   9.587  0.591E+00  0.340E+00
   9.607  0.594E+00  0.342E+00
   9.627  0.596E+00  0.344E+00
   9.647  0.598E+00  0.346E+00
   9.667  0.600E+00  0.348E+00
   9.687  0.602E+00  0.349E+00
   9.707  0.603E+00  0.351E+00
   9.727  0.605E+00  0.353E+00
   9.747  0.607E+00  0.355E+00
   9.767  0.609E+00  0.356E+00
   9.787  0.610E+00  0.358E+00
   9.807  0.612E+00  0.360E+00
   9.827  0.614E+00  0.361E+00
   9.847  0.615E+00  0.363E+00
   9.867  0.617E+00  0.364E+00
   9.887  0.618E+00  0.366E+00
   9.907  0.620E+00  0.367E+00
   9.927  0.621E+00  0.369E+00
   9.947  0.622E+00  0.370E+00
   9.967  0.624E+00  0.372E+00
   9.987  0.625E+00  0.373E+00
  10.007  0.626E+00  0.375E+00
  10.027  0.627E+00  0.376E+00
  10.047  0.628E+00  0.377E+00
  10.067  0.630E+00  0.379E+00
  10.087  0.631E+00  0.380E+00
  10.107  0.632E+00  0.382E+00
  10.127  0.632E+00  0.383E+00
  10.147  0.633E+00  0.384E+00
  10.167  0.634E+00  0.385E+00
  10.187  0.635E+00  0.387E+00
  10.207  0.636E+00  0.388E+00
  10.227  0.636E+00  0.389E+00
  10.247  0.637E+00  0.391E+00
  10.267  0.638E+00  0.392E+00
  10.287  0.638E+00  0.393E+00
  10.307  0.639E+00  0.394E+00
  10.327  0.639E+00  0.395E+00
  10.347  0.640E+00  0.397E+00
  10.367  0.640E+00  0.398E+00
  10.387  0.641E+00  0.399E+00
  10.407  0.641E+00  0.400E+00
  10.427  0.642E+00  0.402E+00
  10.447  0.642E+00  0.403E+00
  10.467  0.643E+00  0.404E+00
  10.487  0.643E+00  0.405E+00
  10.507  0.643E+00  0.407E+00
  10.527  0.644E+00  0.408E+00
  10.547  0.645E+00  0.409E+00
  10.567  0.645E+00  0.411E+00
  10.587  0.646E+00  0.412E+00
  10.607  0.646E+00  0.413E+00
  10.627  0.647E+00  0.415E+00
  10.647  0.647E+00  0.416E+00
  10.667  0.648E+00  0.417E+00
  10.687  0.648E+00  0.418E+00
  10.707  0.649E+00  0.420E+00
  10.727  0.650E+00  0.421E+00
  10.747  0.650E+00  0.422E+00
  10.767  0.651E+00  0.423E+00
  10.787  0.651E+00  0.424E+00
  10.807  0.651E+00  0.425E+00
  10.827  0.652E+00  0.426E+00
  10.847  0.652E+00  0.427E+00
  10.867  0.652E+00  0.428E+00
  10.887  0.652E+00  0.429E+00
  10.907  0.652E+00  0.430E+00
  10.927  0.652E+00  0.430E+00
  10.947  0.651E+00  0.431E+00
  10.967  0.651E+00  0.431E+00
  10.987  0.650E+00  0.431E+00
  11.007  0.650E+00  0.431E+00
  11.027  0.649E+00  0.431E+00
  11.047  0.648E+00  0.431E+00
  11.067  0.647E+00  0.431E+00
  11.087  0.646E+00  0.431E+00
  11.107  0.645E+00  0.431E+00
  11.127  0.643E+00  0.430E+00
  11.147  0.642E+00  0.430E+00
  11.167  0.640E+00  0.429E+00
  11.187  0.639E+00  0.429E+00
  11.207  0.637E+00  0.428E+00
  11.227  0.635E+00  0.428E+00
  11.247  0.634E+00  0.427E+00
  11.267  0.632E+00  0.426E+00
  11.287  0.631E+00  0.426E+00
  11.307  0.629E+00  0.425E+00
  11.327  0.628E+00  0.425E+00
  11.347  0.626E+00  0.424E+00
  11.367  0.625E+00  0.424E+00
  11.387  0.624E+00  0.423E+00
  11.407  0.623E+00  0.423E+00
  11.427  0.623E+00  0.423E+00
  11.447  0.622E+00  0.423E+00
  11.467  0.622E+00  0.423E+00
  11.487  0.622E+00  0.424E+00
  11.507  0.622E+00  0.424E+00
  11.527  0.623E+00  0.425E+00
  11.547  0.623E+00  0.425E+00
  11.567  0.624E+00  0.426E+00
  11.587  0.625E+00  0.427E+00
  11.607  0.627E+00  0.429E+00
  11.627  0.629E+00  0.430E+00
  11.647  0.630E+00  0.431E+00
  11.667  0.633E+00  0.433E+00
  11.687  0.635E+00  0.435E+00
  11.707  0.638E+00  0.437E+00
  11.727  0.641E+00  0.439E+00
  11.747  0.644E+00  0.441E+00
  11.767  0.647E+00  0.443E+00
  11.787  0.650E+00  0.446E+00
  11.807  0.654E+00  0.448E+00
  11.827  0.658E+00  0.451E+00
  11.847  0.662E+00  0.453E+00
  11.867  0.666E+00  0.456E+00
  11.887  0.670E+00  0.459E+00
  11.907  0.674E+00  0.461E+00
  11.927  0.678E+00  0.464E+00
  11.947  0.683E+00  0.467E+00
  11.967  0.688E+00  0.470E+00
  11.987  0.692E+00  0.473E+00
  12.007  0.697E+00  0.476E+00
  12.027  0.702E+00  0.479E+00
  12.047  0.707E+00  0.483E+00
  12.067  0.712E+00  0.486E+00
  12.087  0.717E+00  0.489E+00
  12.107  0.722E+00  0.492E+00
  12.127  0.727E+00  0.496E+00
  12.147  0.732E+00  0.499E+00
  12.167  0.738E+00  0.503E+00
  12.187  0.743E+00  0.506E+00
  12.207  0.749E+00  0.510E+00
  12.227  0.754E+00  0.514E+00
  12.247  0.760E+00  0.517E+00
  12.267  0.765E+00  0.521E+00
  12.287  0.771E+00  0.525E+00
  12.307  0.777E+00  0.529E+00
  12.327  0.783E+00  0.533E+00
  12.347  0.788E+00  0.537E+00
  12.367  0.794E+00  0.541E+00
  12.387  0.800E+00  0.544E+00
  12.407  0.806E+00  0.548E+00
  12.427  0.811E+00  0.552E+00
  12.447  0.817E+00  0.556E+00
  12.467  0.822E+00  0.560E+00
  12.487  0.827E+00  0.563E+00
  12.507  0.832E+00  0.567E+00
  12.527  0.837E+00  0.570E+00
  12.547  0.842E+00  0.574E+00
  12.567  0.846E+00  0.577E+00
  12.587  0.851E+00  0.580E+00
  12.607  0.854E+00  0.583E+00
  12.627  0.858E+00  0.585E+00
  12.647  0.861E+00  0.588E+00
  12.667  0.864E+00  0.590E+00
  12.687  0.867E+00  0.592E+00
  12.707  0.869E+00  0.593E+00
  12.727  0.870E+00  0.595E+00
  12.747  0.872E+00  0.596E+00
  12.767  0.873E+00  0.596E+00
  12.787  0.873E+00  0.597E+00
  12.807  0.873E+00  0.597E+00
  12.827  0.873E+00  0.597E+00
  12.847  0.872E+00  0.597E+00
  12.867  0.871E+00  0.596E+00
  12.887  0.869E+00  0.595E+00
  12.907  0.867E+00  0.594E+00
  12.927  0.865E+00  0.593E+00
  12.947  0.862E+00  0.591E+00
  12.967  0.859E+00  0.589E+00
  12.987  0.855E+00  0.587E+00
  13.007  0.851E+00  0.584E+00
  13.027  0.847E+00  0.582E+00
  13.047  0.843E+00  0.579E+00
  13.067  0.838E+00  0.576E+00
  13.087  0.833E+00  0.573E+00
  13.107  0.828E+00  0.569E+00
  13.127  0.822E+00  0.566E+00
  13.147  0.817E+00  0.562E+00
  13.167  0.811E+00  0.558E+00
  13.187  0.805E+00  0.555E+00
  13.207  0.798E+00  0.550E+00
  13.227  0.792E+00  0.546E+00
  13.247  0.785E+00  0.542E+00
  13.267  0.778E+00  0.537E+00
  13.287  0.771E+00  0.533E+00
  13.307  0.764E+00  0.528E+00
  13.327  0.756E+00  0.523E+00
  13.347  0.749E+00  0.519E+00
  13.367  0.741E+00  0.514E+00
  13.387  0.733E+00  0.509E+00
  13.407  0.725E+00  0.503E+00
  13.427  0.717E+00  0.498E+00
  13.447  0.708E+00  0.493E+00
  13.467  0.700E+00  0.487E+00
  13.487  0.691E+00  0.482E+00
  13.507  0.682E+00  0.476E+00
  13.527  0.674E+00  0.471E+00
  13.547  0.665E+00  0.465E+00
  13.567  0.656E+00  0.459E+00
  13.587  0.646E+00  0.453E+00
  13.607  0.637E+00  0.447E+00
  13.627  0.628E+00  0.442E+00
  13.647  0.619E+00  0.436E+00
  13.667  0.610E+00  0.430E+00
  13.687  0.600E+00  0.424E+00
  13.707  0.591E+00  0.418E+00
  13.727  0.582E+00  0.412E+00
  13.747  0.573E+00  0.407E+00
  13.767  0.564E+00  0.401E+00
  13.787  0.555E+00  0.395E+00
  13.807  0.546E+00  0.390E+00
  13.827  0.537E+00  0.384E+00
  13.847  0.529E+00  0.379E+00
  13.867  0.520E+00  0.373E+00
  13.887  0.512E+00  0.368E+00
  13.907  0.504E+00  0.363E+00
  13.927  0.496E+00  0.358E+00
  13.947  0.489E+00  0.354E+00
  13.967  0.481E+00  0.349E+00
  13.987  0.474E+00  0.344E+00
  14.007  0.467E+00  0.340E+00
  14.027  0.460E+00  0.336E+00
  14.047  0.454E+00  0.332E+00
  14.067  0.448E+00  0.328E+00
  14.087  0.442E+00  0.324E+00
  14.107  0.436E+00  0.321E+00
  14.127  0.430E+00  0.317E+00
  14.147  0.425E+00  0.314E+00
  14.167  0.419E+00  0.311E+00
  14.187  0.414E+00  0.308E+00
  14.207  0.410E+00  0.305E+00
  14.227  0.405E+00  0.302E+00
  14.247  0.401E+00  0.299E+00
  14.267  0.396E+00  0.297E+00
  14.287  0.392E+00  0.294E+00
  14.307  0.388E+00  0.292E+00
  14.327  0.384E+00  0.289E+00
  14.347  0.380E+00  0.287E+00
  14.367  0.377E+00  0.285E+00
  14.387  0.373E+00  0.283E+00
  14.407  0.370E+00  0.280E+00
  14.427  0.366E+00  0.278E+00
  14.447  0.363E+00  0.276E+00
  14.467  0.360E+00  0.275E+00
  14.487  0.357E+00  0.273E+00
  14.507  0.354E+00  0.271E+00
  14.527  0.351E+00  0.269E+00
  14.547  0.349E+00  0.267E+00
  14.567  0.346E+00  0.266E+00
  14.587  0.343E+00  0.264E+00
  14.607  0.341E+00  0.262E+00
  14.627  0.338E+00  0.261E+00
  14.647  0.336E+00  0.259E+00
  14.667  0.334E+00  0.258E+00
  14.687  0.332E+00  0.257E+00
  14.707  0.329E+00  0.255E+00
  14.727  0.327E+00  0.254E+00
  14.747  0.326E+00  0.253E+00
  14.767  0.324E+00  0.252E+00
  14.787  0.322E+00  0.251E+00
  14.807  0.321E+00  0.250E+00
  14.827  0.319E+00  0.249E+00
  14.847  0.318E+00  0.248E+00
  14.867  0.317E+00  0.247E+00
  14.887  0.316E+00  0.246E+00
  14.907  0.315E+00  0.246E+00
  14.927  0.314E+00  0.245E+00
  14.947  0.313E+00  0.245E+00
  14.967  0.312E+00  0.244E+00
  14.987  0.312E+00  0.244E+00
  15.007  0.312E+00  0.244E+00
  15.027  0.311E+00  0.244E+00
  15.047  0.311E+00  0.244E+00
  15.067  0.311E+00  0.244E+00
  15.087  0.312E+00  0.244E+00
  15.107  0.312E+00  0.244E+00
  15.127  0.312E+00  0.245E+00
  15.147  0.313E+00  0.245E+00
  15.167  0.314E+00  0.246E+00
  15.187  0.314E+00  0.246E+00
  15.207  0.315E+00  0.247E+00
  15.227  0.316E+00  0.247E+00
  15.247  0.318E+00  0.248E+00
  15.267  0.319E+00  0.249E+00
  15.287  0.320E+00  0.250E+00
  15.307  0.322E+00  0.251E+00
  15.327  0.323E+00  0.252E+00
  15.347  0.325E+00  0.253E+00
  15.367  0.327E+00  0.255E+00
  15.387  0.329E+00  0.256E+00
  15.407  0.331E+00  0.257E+00
  15.427  0.333E+00  0.259E+00
  15.447  0.335E+00  0.260E+00
  15.467  0.337E+00  0.262E+00
  15.487  0.340E+00  0.263E+00
  15.507  0.342E+00  0.265E+00
  15.527  0.344E+00  0.267E+00
  15.547  0.347E+00  0.268E+00
  15.567  0.350E+00  0.270E+00
  15.587  0.352E+00  0.272E+00
  15.607  0.355E+00  0.274E+00
  15.627  0.358E+00  0.276E+00
  15.647  0.360E+00  0.277E+00
  15.667  0.363E+00  0.279E+00
  15.687  0.366E+00  0.281E+00
  15.707  0.369E+00  0.283E+00
  15.727  0.372E+00  0.285E+00
  15.747  0.374E+00  0.287E+00
  15.767  0.377E+00  0.289E+00
  15.787  0.380E+00  0.291E+00
  15.807  0.383E+00  0.292E+00
  15.827  0.385E+00  0.294E+00
  15.847  0.388E+00  0.296E+00
  15.867  0.391E+00  0.298E+00
  15.887  0.393E+00  0.299E+00
  15.907  0.395E+00  0.301E+00
  15.927  0.398E+00  0.302E+00
  15.947  0.400E+00  0.304E+00
  15.967  0.402E+00  0.305E+00
  15.987  0.404E+00  0.306E+00
  16.007  0.406E+00  0.308E+00
  16.027  0.407E+00  0.309E+00
  16.047  0.409E+00  0.309E+00
  16.067  0.410E+00  0.310E+00
  16.087  0.411E+00  0.311E+00
  16.107  0.412E+00  0.311E+00
  16.127  0.413E+00  0.312E+00
  16.147  0.414E+00  0.312E+00
  16.167  0.414E+00  0.312E+00
  16.187  0.414E+00  0.312E+00
  16.207  0.414E+00  0.311E+00
  16.227  0.414E+00  0.311E+00
  16.247  0.413E+00  0.310E+00
  16.267  0.412E+00  0.309E+00
  16.287  0.411E+00  0.308E+00
  16.307  0.410E+00  0.307E+00
  16.327  0.409E+00  0.305E+00
  16.347  0.407E+00  0.304E+00
  16.367  0.405E+00  0.302E+00
  16.387  0.403E+00  0.300E+00
  16.407  0.401E+00  0.299E+00
  16.427  0.399E+00  0.296E+00
  16.447  0.397E+00  0.294E+00
  16.467  0.394E+00  0.292E+00
  16.487  0.391E+00  0.290E+00
  16.507  0.389E+00  0.287E+00
  16.527  0.386E+00  0.285E+00
  16.547  0.383E+00  0.282E+00
  16.567  0.380E+00  0.279E+00
  16.587  0.377E+00  0.277E+00
  16.607  0.374E+00  0.274E+00
  16.627  0.371E+00  0.271E+00
  16.647  0.368E+00  0.268E+00
  16.667  0.365E+00  0.266E+00
  16.687  0.362E+00  0.263E+00
  16.707  0.359E+00  0.260E+00
  16.727  0.356E+00  0.258E+00
  16.747  0.353E+00  0.255E+00
  16.767  0.351E+00  0.253E+00
  16.787  0.348E+00  0.250E+00
  16.807  0.345E+00  0.248E+00
  16.827  0.343E+00  0.245E+00
  16.847  0.340E+00  0.243E+00
  16.867  0.338E+00  0.241E+00
  16.887  0.335E+00  0.239E+00
  16.907  0.333E+00  0.237E+00
  16.927  0.331E+00  0.235E+00
  16.947  0.329E+00  0.233E+00
  16.967  0.326E+00  0.231E+00
  16.987  0.324E+00  0.229E+00
  17.007  0.322E+00  0.227E+00
  17.027  0.320E+00  0.225E+00
  17.047  0.318E+00  0.223E+00
  17.067  0.316E+00  0.222E+00
  17.087  0.315E+00  0.220E+00
  17.107  0.313E+00  0.218E+00
  17.127  0.311E+00  0.217E+00
  17.147  0.309E+00  0.215E+00
  17.167  0.307E+00  0.214E+00
  17.187  0.305E+00  0.212E+00
  17.207  0.304E+00  0.211E+00
  17.227  0.302E+00  0.209E+00
  17.247  0.300E+00  0.208E+00
  17.267  0.298E+00  0.206E+00
  17.287  0.296E+00  0.205E+00
  17.307  0.295E+00  0.203E+00
  17.327  0.293E+00  0.202E+00
  17.347  0.291E+00  0.200E+00
  17.367  0.289E+00  0.199E+00
  17.387  0.287E+00  0.197E+00
  17.407  0.286E+00  0.196E+00
  17.427  0.284E+00  0.194E+00
  17.447  0.282E+00  0.193E+00
  17.467  0.280E+00  0.191E+00
  17.487  0.278E+00  0.190E+00
  17.507  0.277E+00  0.188E+00
  17.527  0.275E+00  0.187E+00
  17.547  0.273E+00  0.185E+00
  17.567  0.271E+00  0.184E+00
  17.587  0.269E+00  0.182E+00
  17.607  0.268E+00  0.181E+00
  17.627  0.266E+00  0.179E+00
  17.647  0.264E+00  0.178E+00
  17.667  0.262E+00  0.176E+00
  17.687  0.261E+00  0.175E+00
  17.707  0.259E+00  0.173E+00
  17.727  0.257E+00  0.172E+00
  17.747  0.256E+00  0.170E+00
  17.767  0.254E+00  0.169E+00
  17.787  0.252E+00  0.167E+00
  17.807  0.251E+00  0.165E+00
  17.827  0.249E+00  0.164E+00
  17.847  0.248E+00  0.162E+00
  17.867  0.246E+00  0.161E+00
  17.887  0.244E+00  0.159E+00
  17.907  0.243E+00  0.158E+00
  17.927  0.241E+00  0.156E+00
  17.947  0.240E+00  0.155E+00
  17.967  0.238E+00  0.153E+00
  17.987  0.237E+00  0.152E+00
  18.007  0.235E+00  0.150E+00
  18.027  0.233E+00  0.149E+00
  18.047  0.232E+00  0.147E+00
  18.067  0.230E+00  0.146E+00
  18.087  0.229E+00  0.144E+00
  18.107  0.227E+00  0.143E+00
  18.127  0.226E+00  0.141E+00
  18.147  0.224E+00  0.140E+00
  18.167  0.222E+00  0.138E+00
  18.187  0.221E+00  0.137E+00
  18.207  0.219E+00  0.135E+00
  18.227  0.218E+00  0.133E+00
  18.247  0.216E+00  0.132E+00
  18.267  0.214E+00  0.130E+00
  18.287  0.213E+00  0.129E+00
  18.307  0.211E+00  0.127E+00
  18.327  0.209E+00  0.126E+00
  18.347  0.208E+00  0.124E+00
  18.367  0.206E+00  0.123E+00
  18.387  0.205E+00  0.121E+00
  18.407  0.203E+00  0.120E+00
  18.427  0.201E+00  0.118E+00
  18.447  0.200E+00  0.117E+00
  18.467  0.198E+00  0.115E+00
  18.487  0.197E+00  0.114E+00
  18.507  0.195E+00  0.112E+00
  18.527  0.194E+00  0.111E+00
  18.547  0.192E+00  0.109E+00
  18.567  0.191E+00  0.108E+00
  18.587  0.189E+00  0.106E+00
  18.607  0.187E+00  0.105E+00
  18.627  0.186E+00  0.104E+00
  18.647  0.184E+00  0.102E+00
  18.667  0.183E+00  0.101E+00
  18.687  0.181E+00  0.994E-01
  18.707  0.180E+00  0.980E-01
  18.727  0.178E+00  0.967E-01
  18.747  0.176E+00  0.953E-01
  18.767  0.175E+00  0.939E-01
  18.787  0.173E+00  0.926E-01
  18.807  0.171E+00  0.912E-01
  18.827  0.169E+00  0.899E-01
  18.847  0.168E+00  0.885E-01
  18.867  0.166E+00  0.871E-01
  18.887  0.164E+00  0.857E-01
  18.907  0.162E+00  0.843E-01
  18.927  0.160E+00  0.830E-01
  18.947  0.158E+00  0.816E-01
  18.967  0.156E+00  0.802E-01
  18.987  0.154E+00  0.788E-01
  19.007  0.152E+00  0.773E-01
  19.027  0.150E+00  0.759E-01
  19.047  0.148E+00  0.745E-01
  19.067  0.146E+00  0.731E-01
  19.087  0.144E+00  0.718E-01
  19.107  0.142E+00  0.704E-01
  19.127  0.140E+00  0.690E-01
  19.147  0.138E+00  0.677E-01
  19.167  0.136E+00  0.664E-01
  19.187  0.134E+00  0.651E-01
  19.207  0.132E+00  0.638E-01
  19.227  0.130E+00  0.626E-01
  19.247  0.128E+00  0.614E-01
  19.267  0.127E+00  0.603E-01
  19.287  0.125E+00  0.592E-01
  19.307  0.124E+00  0.581E-01
  19.327  0.122E+00  0.571E-01
  19.347  0.121E+00  0.561E-01
  19.367  0.120E+00  0.552E-01
  19.387  0.119E+00  0.544E-01
  19.407  0.118E+00  0.536E-01
  19.427  0.117E+00  0.529E-01
  19.447  0.116E+00  0.522E-01
  19.467  0.116E+00  0.515E-01
  19.487  0.115E+00  0.510E-01
  19.507  0.114E+00  0.504E-01
  19.527  0.114E+00  0.499E-01
  19.547  0.114E+00  0.495E-01
  19.567  0.113E+00  0.491E-01
  19.587  0.113E+00  0.487E-01
  19.607  0.113E+00  0.484E-01
  19.627  0.112E+00  0.481E-01
  19.647  0.112E+00  0.478E-01
  19.667  0.112E+00  0.476E-01
  19.687  0.112E+00  0.473E-01
  19.707  0.112E+00  0.471E-01
  19.727  0.112E+00  0.469E-01
  19.747  0.111E+00  0.467E-01
  19.767  0.111E+00  0.465E-01
  19.787  0.111E+00  0.463E-01
  19.807  0.111E+00  0.460E-01
  19.827  0.110E+00  0.458E-01
  19.847  0.110E+00  0.456E-01
  19.867  0.109E+00  0.454E-01
  19.887  0.109E+00  0.451E-01
  19.907  0.108E+00  0.449E-01
  19.927  0.108E+00  0.446E-01
  19.947  0.107E+00  0.443E-01
  19.967  0.106E+00  0.440E-01
  19.987  0.105E+00  0.437E-01
  20.007  0.105E+00  0.433E-01
  20.027  0.104E+00  0.430E-01
  20.047  0.103E+00  0.426E-01
  20.067  0.102E+00  0.423E-01
  20.087  0.101E+00  0.419E-01
  20.107  0.998E-01  0.415E-01
  20.127  0.987E-01  0.412E-01
  20.147  0.977E-01  0.408E-01
  20.167  0.966E-01  0.404E-01
  20.187  0.956E-01  0.400E-01
  20.207  0.945E-01  0.396E-01
  20.227  0.935E-01  0.393E-01
  20.247  0.924E-01  0.389E-01
  20.267  0.914E-01  0.385E-01
  20.287  0.904E-01  0.382E-01
  20.307  0.894E-01  0.379E-01
  20.327  0.884E-01  0.376E-01
  20.347  0.875E-01  0.373E-01
  20.367  0.866E-01  0.370E-01
  20.387  0.857E-01  0.368E-01
  20.407  0.849E-01  0.365E-01
  20.427  0.841E-01  0.363E-01
  20.447  0.833E-01  0.361E-01
  20.467  0.826E-01  0.360E-01
  20.487  0.819E-01  0.358E-01
  20.507  0.812E-01  0.357E-01
  20.527  0.806E-01  0.356E-01
  20.547  0.800E-01  0.356E-01
  20.567  0.795E-01  0.355E-01
  20.587  0.790E-01  0.355E-01
  20.607  0.785E-01  0.355E-01
  20.627  0.780E-01  0.355E-01
  20.647  0.776E-01  0.355E-01
  20.667  0.772E-01  0.355E-01
  20.687  0.768E-01  0.356E-01
  20.707  0.764E-01  0.356E-01
  20.727  0.761E-01  0.357E-01
  20.747  0.758E-01  0.358E-01
  20.767  0.754E-01  0.359E-01
  20.787  0.751E-01  0.360E-01
  20.807  0.748E-01  0.361E-01
  20.827  0.745E-01  0.361E-01
  20.847  0.742E-01  0.362E-01
  20.867  0.738E-01  0.363E-01
  20.887  0.735E-01  0.364E-01
  20.907  0.731E-01  0.364E-01
  20.927  0.728E-01  0.365E-01
  20.947  0.724E-01  0.365E-01
  20.967  0.720E-01  0.366E-01
  20.987  0.716E-01  0.366E-01
  21.007  0.711E-01  0.366E-01
  21.027  0.706E-01  0.365E-01
  21.047  0.701E-01  0.365E-01
  21.067  0.696E-01  0.364E-01
  21.087  0.691E-01  0.364E-01
  21.107  0.685E-01  0.363E-01
  21.127  0.679E-01  0.362E-01
  21.147  0.672E-01  0.360E-01
  21.167  0.666E-01  0.359E-01
  21.187  0.659E-01  0.358E-01
  21.207  0.652E-01  0.356E-01
  21.227  0.645E-01  0.354E-01
  21.247  0.638E-01  0.352E-01
  21.267  0.630E-01  0.350E-01
  21.287  0.623E-01  0.348E-01
  21.307  0.615E-01  0.346E-01
  21.327  0.607E-01  0.344E-01
  21.347  0.600E-01  0.342E-01
  21.367  0.592E-01  0.340E-01
  21.387  0.585E-01  0.338E-01
  21.407  0.577E-01  0.336E-01
  21.427  0.570E-01  0.334E-01
  21.447  0.563E-01  0.333E-01
  21.467  0.556E-01  0.331E-01
  21.487  0.549E-01  0.329E-01
  21.507  0.542E-01  0.328E-01
  21.527  0.536E-01  0.327E-01
  21.547  0.529E-01  0.325E-01
  21.567  0.524E-01  0.324E-01
  21.587  0.518E-01  0.323E-01
  21.607  0.512E-01  0.322E-01
  21.627  0.507E-01  0.322E-01
  21.647  0.502E-01  0.321E-01
  21.667  0.497E-01  0.320E-01
  21.687  0.493E-01  0.320E-01
  21.707  0.488E-01  0.319E-01
  21.727  0.484E-01  0.319E-01
  21.747  0.480E-01  0.319E-01
  21.767  0.476E-01  0.318E-01
  21.787  0.472E-01  0.318E-01
  21.807  0.468E-01  0.318E-01
  21.827  0.465E-01  0.317E-01
  21.847  0.461E-01  0.317E-01
  21.867  0.457E-01  0.316E-01
  21.887  0.454E-01  0.316E-01
  21.907  0.450E-01  0.315E-01
  21.927  0.446E-01  0.314E-01
  21.947  0.442E-01  0.314E-01
  21.967  0.438E-01  0.313E-01
  21.987  0.434E-01  0.311E-01
  22.007  0.430E-01  0.310E-01
  22.027  0.426E-01  0.309E-01
  22.047  0.421E-01  0.307E-01
  22.067  0.417E-01  0.305E-01
  22.087  0.412E-01  0.304E-01
  22.107  0.407E-01  0.302E-01
  22.127  0.402E-01  0.299E-01
  22.147  0.397E-01  0.297E-01
  22.167  0.392E-01  0.295E-01
  22.187  0.387E-01  0.292E-01
  22.207  0.382E-01  0.289E-01
  22.227  0.376E-01  0.287E-01
  22.247  0.371E-01  0.284E-01
  22.267  0.366E-01  0.281E-01
  22.287  0.360E-01  0.278E-01
  22.307  0.355E-01  0.275E-01
  22.327  0.349E-01  0.272E-01
  22.347  0.344E-01  0.268E-01
  22.367  0.339E-01  0.265E-01
  22.387  0.333E-01  0.262E-01
  22.407  0.328E-01  0.259E-01
  22.427  0.323E-01  0.256E-01
  22.447  0.318E-01  0.253E-01
  22.467  0.313E-01  0.250E-01
  22.487  0.308E-01  0.247E-01
  22.507  0.304E-01  0.244E-01
  22.527  0.299E-01  0.241E-01
  22.547  0.295E-01  0.238E-01
  22.567  0.290E-01  0.236E-01
  22.587  0.286E-01  0.233E-01
  22.607  0.282E-01  0.230E-01
  22.627  0.278E-01  0.228E-01
  22.647  0.275E-01  0.225E-01
  22.667  0.271E-01  0.223E-01
  22.687  0.267E-01  0.220E-01
  22.707  0.264E-01  0.218E-01
  22.727  0.260E-01  0.215E-01
  22.747  0.257E-01  0.213E-01
  22.767  0.254E-01  0.211E-01
  22.787  0.250E-01  0.208E-01
  22.807  0.247E-01  0.206E-01
  22.827  0.244E-01  0.203E-01
  22.847  0.240E-01  0.201E-01
  22.867  0.237E-01  0.198E-01
  22.887  0.234E-01  0.196E-01
  22.907  0.230E-01  0.193E-01
  22.927  0.227E-01  0.190E-01
  22.947  0.223E-01  0.188E-01
  22.967  0.219E-01  0.185E-01
  22.987  0.216E-01  0.182E-01
  23.007  0.212E-01  0.179E-01
  23.027  0.208E-01  0.175E-01
  23.047  0.204E-01  0.172E-01
  23.067  0.200E-01  0.169E-01
  23.087  0.196E-01  0.165E-01
  23.107  0.191E-01  0.162E-01
  23.127  0.187E-01  0.158E-01
  23.147  0.183E-01  0.155E-01
  23.167  0.178E-01  0.151E-01
  23.187  0.174E-01  0.147E-01
  23.207  0.169E-01  0.143E-01
  23.227  0.165E-01  0.140E-01
  23.247  0.160E-01  0.136E-01
  23.267  0.156E-01  0.132E-01
  23.287  0.151E-01  0.128E-01
  23.307  0.147E-01  0.124E-01
  23.327  0.142E-01  0.121E-01
  23.347  0.138E-01  0.117E-01
  23.367  0.134E-01  0.114E-01
  23.387  0.129E-01  0.110E-01
  23.407  0.125E-01  0.107E-01
  23.427  0.121E-01  0.103E-01
  23.447  0.118E-01  0.100E-01
  23.467  0.114E-01  0.970E-02
  23.487  0.110E-01  0.940E-02
  23.507  0.107E-01  0.911E-02
  23.527  0.104E-01  0.884E-02
  23.547  0.100E-01  0.857E-02
  23.567  0.974E-02  0.832E-02
  23.587  0.946E-02  0.807E-02
  23.607  0.918E-02  0.784E-02
  23.627  0.892E-02  0.762E-02
  23.647  0.867E-02  0.741E-02
  23.667  0.843E-02  0.721E-02
  23.687  0.820E-02  0.701E-02
  23.707  0.798E-02  0.683E-02
  23.727  0.777E-02  0.665E-02
  23.747  0.757E-02  0.648E-02
  23.767  0.737E-02  0.631E-02
  23.787  0.718E-02  0.615E-02
  23.807  0.700E-02  0.600E-02
  23.827  0.682E-02  0.584E-02
  23.847  0.664E-02  0.570E-02
  23.867  0.647E-02  0.555E-02
  23.887  0.630E-02  0.540E-02
  23.907  0.613E-02  0.526E-02
  23.927  0.596E-02  0.511E-02
  23.947  0.579E-02  0.497E-02
  23.967  0.562E-02  0.482E-02
  23.987  0.545E-02  0.468E-02
  24.007  0.528E-02  0.453E-02
  24.027  0.511E-02  0.438E-02
  24.047  0.494E-02  0.424E-02
  24.067  0.476E-02  0.409E-02
  24.087  0.459E-02  0.394E-02
  24.107  0.442E-02  0.379E-02
  24.127  0.424E-02  0.364E-02
  24.147  0.407E-02  0.349E-02
  24.167  0.389E-02  0.334E-02
  24.187  0.372E-02  0.319E-02
  24.207  0.354E-02  0.304E-02
  24.227  0.337E-02  0.289E-02
  24.247  0.320E-02  0.275E-02
  24.267  0.304E-02  0.261E-02
  24.287  0.287E-02  0.246E-02
  24.307  0.271E-02  0.232E-02
  24.327  0.255E-02  0.219E-02
  24.347  0.240E-02  0.206E-02
  24.367  0.225E-02  0.193E-02
  24.387  0.210E-02  0.180E-02
  24.407  0.196E-02  0.168E-02
  24.427  0.183E-02  0.157E-02
  24.447  0.170E-02  0.145E-02
  24.467  0.157E-02  0.135E-02
  24.487  0.145E-02  0.125E-02
  24.507  0.134E-02  0.115E-02
  24.527  0.123E-02  0.106E-02
  24.547  0.113E-02  0.970E-03
  24.567  0.103E-02  0.888E-03
  24.587  0.945E-03  0.811E-03
  24.607  0.861E-03  0.738E-03
  24.627  0.782E-03  0.671E-03
  24.647  0.709E-03  0.608E-03
  24.667  0.641E-03  0.550E-03
  24.687  0.578E-03  0.496E-03
  24.707  0.520E-03  0.446E-03
  24.727  0.467E-03  0.400E-03
  24.747  0.418E-03  0.358E-03
  24.767  0.373E-03  0.320E-03
  24.787  0.332E-03  0.285E-03
  24.807  0.295E-03  0.253E-03
  24.827  0.261E-03  0.224E-03
  24.847  0.231E-03  0.198E-03
  24.867  0.204E-03  0.175E-03
  24.887  0.179E-03  0.153E-03
  24.907  0.157E-03  0.135E-03
  24.927  0.137E-03  0.118E-03
  24.947  0.120E-03  0.103E-03
  24.967  0.104E-03  0.893E-04
  24.987  0.904E-04  0.775E-04
  25.007  0.782E-04  0.671E-04
  25.027  0.676E-04  0.579E-04
  25.047  0.582E-04  0.499E-04
  25.067  0.500E-04  0.428E-04
  25.087  0.428E-04  0.367E-04
  25.107  0.366E-04  0.313E-04
  25.127  0.312E-04  0.267E-04
  25.147  0.265E-04  0.227E-04
  25.167  0.224E-04  0.192E-04
  25.187  0.190E-04  0.163E-04
  25.207  0.160E-04  0.137E-04
  25.227  0.135E-04  0.115E-04
  25.247  0.113E-04  0.967E-05
  25.267  0.944E-05  0.809E-05
  25.287  0.788E-05  0.675E-05
  25.307  0.656E-05  0.562E-05
  25.327  0.544E-05  0.466E-05
  25.347  0.450E-05  0.386E-05
  25.367  0.372E-05  0.319E-05
  25.387  0.306E-05  0.262E-05
  25.407  0.251E-05  0.215E-05
  25.427  0.206E-05  0.176E-05
  25.447  0.168E-05  0.144E-05
  25.467  0.137E-05  0.117E-05
  25.487  0.111E-05  0.954E-06
  25.507  0.903E-06  0.773E-06
  25.527  0.729E-06  0.625E-06
  25.547  0.588E-06  0.504E-06
  25.567  0.473E-06  0.405E-06
  25.587  0.379E-06  0.325E-06
