# E (eV)  dos(E)    pdos(E)
  -4.192  0.218E-05  0.217E-05
  -4.172  0.293E-05  0.291E-05
  -4.152  0.392E-05  0.389E-05
  -4.132  0.522E-05  0.518E-05
  -4.112  0.691E-05  0.686E-05
  -4.092  0.911E-05  0.904E-05
  -4.072  0.120E-04  0.119E-04
  -4.052  0.156E-04  0.155E-04
  -4.032  0.203E-04  0.201E-04
  -4.012  0.263E-04  0.261E-04
  -3.992  0.339E-04  0.336E-04
  -3.972  0.434E-04  0.431E-04
  -3.952  0.555E-04  0.550E-04
  -3.932  0.705E-04  0.700E-04
  -3.912  0.892E-04  0.885E-04
  -3.892  0.112E-03  0.112E-03
  -3.872  0.141E-03  0.140E-03
  -3.852  0.176E-03  0.175E-03
  -3.832  0.219E-03  0.217E-03
  -3.812  0.271E-03  0.269E-03
  -3.792  0.334E-03  0.331E-03
  -3.772  0.410E-03  0.406E-03
  -3.752  0.500E-03  0.497E-03
  -3.732  0.609E-03  0.604E-03
  -3.712  0.738E-03  0.732E-03
  -3.692  0.890E-03  0.883E-03
  -3.672  0.107E-02  0.106E-02
  -3.652  0.128E-02  0.127E-02
  -3.632  0.152E-02  0.151E-02
  -3.612  0.181E-02  0.179E-02
  -3.592  0.213E-02  0.212E-02
  -3.572  0.251E-02  0.249E-02
  -3.552  0.294E-02  0.292E-02
  -3.532  0.344E-02  0.341E-02
  -3.512  0.400E-02  0.397E-02
  -3.492  0.463E-02  0.459E-02
  -3.472  0.534E-02  0.530E-02
  -3.452  0.614E-02  0.610E-02
  -3.432  0.703E-02  0.698E-02
  -3.412  0.803E-02  0.797E-02
  -3.392  0.912E-02  0.906E-02
  -3.372  0.103E-01  0.103E-01
  -3.352  0.117E-01  0.116E-01
  -3.332  0.131E-01  0.130E-01
  -3.312  0.147E-01  0.146E-01
  -3.292  0.164E-01  0.163E-01
  -3.272  0.183E-01  0.181E-01
  -3.252  0.203E-01  0.201E-01
  -3.232  0.224E-01  0.223E-01
  -3.212  0.247E-01  0.245E-01
  -3.192  0.272E-01  0.270E-01
  -3.172  0.298E-01  0.295E-01
  -3.152  0.325E-01  0.322E-01
  -3.132  0.354E-01  0.351E-01
  -3.112  0.384E-01  0.381E-01
  -3.092  0.415E-01  0.412E-01
  -3.072  0.448E-01  0.445E-01
  -3.052  0.482E-01  0.478E-01
  -3.032  0.517E-01  0.513E-01
  -3.012  0.553E-01  0.549E-01
  -2.992  0.589E-01  0.585E-01
  -2.972  0.627E-01  0.622E-01
  -2.952  0.665E-01  0.660E-01
  -2.932  0.704E-01  0.698E-01
  -2.912  0.743E-01  0.737E-01
  -2.892  0.782E-01  0.776E-01
  -2.872  0.821E-01  0.815E-01
  -2.852  0.860E-01  0.854E-01
  -2.832  0.899E-01  0.892E-01
  -2.812  0.937E-01  0.931E-01
  -2.792  0.976E-01  0.969E-01
  -2.772  0.101E+00  0.101E+00
  -2.752  0.105E+00  0.104E+00
  -2.732  0.109E+00  0.108E+00
  -2.712  0.112E+00  0.111E+00
  -2.692  0.116E+00  0.115E+00
  -2.672  0.119E+00  0.118E+00
  -2.652  0.123E+00  0.122E+00
  -2.632  0.126E+00  0.125E+00
  -2.612  0.129E+00  0.128E+00
  -2.592  0.133E+00  0.132E+00
  -2.572  0.136E+00  0.135E+00
  -2.552  0.139E+00  0.138E+00
  -2.532  0.142E+00  0.141E+00
  -2.512  0.145E+00  0.144E+00
  -2.492  0.149E+00  0.148E+00
  -2.472  0.152E+00  0.151E+00
  -2.452  0.155E+00  0.154E+00
  -2.432  0.158E+00  0.157E+00
  -2.412  0.162E+00  0.161E+00
  -2.392  0.165E+00  0.164E+00
  -2.372  0.168E+00  0.167E+00
  -2.352  0.172E+00  0.170E+00
  -2.332  0.175E+00  0.174E+00
  -2.312  0.178E+00  0.177E+00
  -2.292  0.181E+00  0.180E+00
  -2.272  0.185E+00  0.183E+00
  -2.252  0.188E+00  0.186E+00
  -2.232  0.191E+00  0.189E+00
  -2.212  0.194E+00  0.192E+00
  -2.192  0.197E+00  0.195E+00
  -2.172  0.199E+00  0.198E+00
  -2.152  0.202E+00  0.200E+00
  -2.132  0.204E+00  0.202E+00
  -2.112  0.206E+00  0.205E+00
  -2.092  0.208E+00  0.206E+00
  -2.072  0.210E+00  0.208E+00
  -2.052  0.211E+00  0.210E+00
  -2.032  0.212E+00  0.211E+00
  -2.012  0.214E+00  0.212E+00
  -1.992  0.215E+00  0.213E+00
  -1.972  0.215E+00  0.214E+00
  -1.952  0.216E+00  0.214E+00
  -1.932  0.217E+00  0.215E+00
  -1.912  0.217E+00  0.215E+00
  -1.892  0.218E+00  0.216E+00
  -1.872  0.218E+00  0.216E+00
  -1.852  0.219E+00  0.217E+00
  -1.832  0.219E+00  0.217E+00
  -1.812  0.220E+00  0.218E+00
  -1.792  0.221E+00  0.219E+00
  -1.772  0.222E+00  0.220E+00
  -1.752  0.224E+00  0.222E+00
  -1.732  0.225E+00  0.223E+00
  -1.712  0.227E+00  0.225E+00
  -1.692  0.230E+00  0.227E+00
  -1.672  0.232E+00  0.230E+00
  -1.652  0.235E+00  0.232E+00
  -1.632  0.238E+00  0.235E+00
  -1.612  0.241E+00  0.239E+00
  -1.592  0.245E+00  0.242E+00
  -1.572  0.249E+00  0.246E+00
  -1.552  0.253E+00  0.250E+00
  -1.532  0.257E+00  0.254E+00
  -1.512  0.261E+00  0.258E+00
  -1.492  0.266E+00  0.263E+00
  -1.472  0.270E+00  0.267E+00
  -1.452  0.274E+00  0.271E+00
  -1.432  0.278E+00  0.275E+00
  -1.412  0.283E+00  0.279E+00
  -1.392  0.286E+00  0.283E+00
  -1.372  0.290E+00  0.286E+00
  -1.352  0.293E+00  0.290E+00
  -1.332  0.296E+00  0.293E+00
  -1.312  0.299E+00  0.295E+00
  -1.292  0.301E+00  0.297E+00
  -1.272  0.303E+00  0.299E+00
  -1.252  0.304E+00  0.300E+00
  -1.232  0.305E+00  0.301E+00
  -1.212  0.306E+00  0.302E+00
  -1.192  0.306E+00  0.302E+00
  -1.172  0.306E+00  0.302E+00
  -1.152  0.305E+00  0.301E+00
  -1.132  0.304E+00  0.300E+00
  -1.112  0.303E+00  0.299E+00
  -1.092  0.301E+00  0.297E+00
  -1.072  0.299E+00  0.295E+00
  -1.052  0.297E+00  0.293E+00
  -1.032  0.295E+00  0.291E+00
  -1.012  0.293E+00  0.289E+00
  -0.992  0.291E+00  0.287E+00
  -0.972  0.289E+00  0.284E+00
  -0.952  0.287E+00  0.282E+00
  -0.932  0.285E+00  0.281E+00
  -0.912  0.284E+00  0.279E+00
  -0.892  0.283E+00  0.278E+00
  -0.872  0.282E+00  0.277E+00
  -0.852  0.281E+00  0.277E+00
  -0.832  0.282E+00  0.277E+00
  -0.812  0.282E+00  0.277E+00
  -0.792  0.283E+00  0.278E+00
  -0.772  0.285E+00  0.280E+00
  -0.752  0.287E+00  0.282E+00
  -0.732  0.290E+00  0.284E+00
  -0.712  0.293E+00  0.288E+00
  -0.692  0.297E+00  0.291E+00
  -0.672  0.301E+00  0.295E+00
  -0.652  0.306E+00  0.300E+00
  -0.632  0.311E+00  0.305E+00
  -0.612  0.317E+00  0.310E+00
  -0.592  0.323E+00  0.316E+00
  -0.572  0.329E+00  0.322E+00
  -0.552  0.335E+00  0.328E+00
  -0.532  0.342E+00  0.334E+00
  -0.512  0.348E+00  0.340E+00
  -0.492  0.354E+00  0.347E+00
  -0.472  0.361E+00  0.353E+00
  -0.452  0.367E+00  0.358E+00
  -0.432  0.372E+00  0.364E+00
  -0.412  0.378E+00  0.369E+00
  -0.392  0.383E+00  0.374E+00
  -0.372  0.388E+00  0.379E+00
  -0.352  0.392E+00  0.383E+00
  -0.332  0.396E+00  0.387E+00
  -0.312  0.400E+00  0.390E+00
  -0.292  0.403E+00  0.393E+00
  -0.272  0.405E+00  0.395E+00
  -0.252  0.407E+00  0.397E+00
  -0.232  0.409E+00  0.398E+00
  -0.212  0.410E+00  0.399E+00
  -0.192  0.411E+00  0.400E+00
  -0.172  0.411E+00  0.400E+00
  -0.152  0.411E+00  0.400E+00
  -0.132  0.411E+00  0.399E+00
  -0.112  0.410E+00  0.398E+00
  -0.092  0.409E+00  0.397E+00
  -0.072  0.408E+00  0.396E+00
  -0.052  0.407E+00  0.394E+00
  -0.032  0.405E+00  0.392E+00
  -0.012  0.404E+00  0.391E+00
   0.008  0.402E+00  0.389E+00
   0.028  0.400E+00  0.386E+00
   0.048  0.398E+00  0.384E+00
   0.068  0.396E+00  0.382E+00
   0.088  0.394E+00  0.380E+00
   0.108  0.393E+00  0.378E+00
   0.128  0.391E+00  0.375E+00
   0.148  0.389E+00  0.373E+00
   0.168  0.387E+00  0.371E+00
   0.188  0.386E+00  0.369E+00
   0.208  0.384E+00  0.367E+00
   0.228  0.383E+00  0.365E+00
   0.248  0.382E+00  0.363E+00
   0.268  0.381E+00  0.362E+00
   0.288  0.380E+00  0.361E+00
   0.308  0.380E+00  0.360E+00
   0.328  0.381E+00  0.360E+00
   0.348  0.381E+00  0.360E+00
   0.368  0.383E+00  0.360E+00
   0.388  0.384E+00  0.361E+00
   0.408  0.387E+00  0.363E+00
   0.428  0.390E+00  0.365E+00
   0.448  0.394E+00  0.368E+00
   0.468  0.399E+00  0.372E+00
   0.488  0.404E+00  0.377E+00
   0.508  0.410E+00  0.382E+00
   0.528  0.417E+00  0.388E+00
   0.548  0.425E+00  0.394E+00
   0.568  0.434E+00  0.402E+00
   0.588  0.443E+00  0.410E+00
   0.608  0.453E+00  0.418E+00
   0.628  0.463E+00  0.428E+00
   0.648  0.474E+00  0.437E+00
   0.668  0.485E+00  0.448E+00
   0.688  0.497E+00  0.458E+00
   0.708  0.509E+00  0.469E+00
   0.728  0.521E+00  0.479E+00
   0.748  0.533E+00  0.490E+00
   0.768  0.544E+00  0.500E+00
   0.788  0.555E+00  0.510E+00
   0.808  0.566E+00  0.520E+00
   0.828  0.576E+00  0.529E+00
   0.848  0.585E+00  0.537E+00
   0.868  0.593E+00  0.544E+00
   0.888  0.600E+00  0.550E+00
   0.908  0.605E+00  0.555E+00
   0.928  0.610E+00  0.559E+00
   0.948  0.613E+00  0.562E+00
   0.968  0.614E+00  0.563E+00
   0.988  0.614E+00  0.563E+00
   1.008  0.613E+00  0.562E+00
   1.028  0.610E+00  0.559E+00
   1.048  0.605E+00  0.554E+00
   1.068  0.599E+00  0.549E+00
   1.088  0.592E+00  0.542E+00
   1.108  0.583E+00  0.534E+00
   1.128  0.574E+00  0.525E+00
   1.148  0.563E+00  0.515E+00
   1.168  0.551E+00  0.504E+00
   1.188  0.539E+00  0.493E+00
   1.208  0.526E+00  0.481E+00
   1.228  0.512E+00  0.468E+00
   1.248  0.498E+00  0.455E+00
   1.268  0.484E+00  0.442E+00
   1.288  0.470E+00  0.429E+00
   1.308  0.456E+00  0.416E+00
   1.328  0.443E+00  0.404E+00
   1.348  0.430E+00  0.392E+00
   1.368  0.417E+00  0.380E+00
   1.388  0.405E+00  0.369E+00
   1.408  0.394E+00  0.358E+00
   1.428  0.383E+00  0.349E+00
   1.448  0.374E+00  0.340E+00
   1.468  0.365E+00  0.332E+00
   1.488  0.357E+00  0.324E+00
   1.508  0.351E+00  0.318E+00
   1.528  0.345E+00  0.313E+00
   1.548  0.341E+00  0.308E+00
   1.568  0.337E+00  0.305E+00
   1.588  0.334E+00  0.302E+00
   1.608  0.333E+00  0.300E+00
   1.628  0.332E+00  0.299E+00
   1.648  0.332E+00  0.299E+00
   1.668  0.333E+00  0.299E+00
   1.688  0.335E+00  0.301E+00
   1.708  0.338E+00  0.302E+00
   1.728  0.341E+00  0.305E+00
   1.748  0.344E+00  0.307E+00
   1.768  0.348E+00  0.310E+00
   1.788  0.352E+00  0.314E+00
   1.808  0.357E+00  0.317E+00
   1.828  0.361E+00  0.321E+00
   1.848  0.366E+00  0.324E+00
   1.868  0.371E+00  0.328E+00
   1.888  0.375E+00  0.331E+00
   1.908  0.379E+00  0.334E+00
   1.928  0.383E+00  0.336E+00
   1.948  0.386E+00  0.339E+00
   1.968  0.389E+00  0.340E+00
   1.988  0.391E+00  0.342E+00
   2.008  0.392E+00  0.342E+00
   2.028  0.393E+00  0.342E+00
   2.048  0.393E+00  0.342E+00
   2.068  0.392E+00  0.340E+00
   2.088  0.391E+00  0.338E+00
   2.108  0.388E+00  0.335E+00
   2.128  0.385E+00  0.332E+00
   2.148  0.381E+00  0.328E+00
   2.168  0.376E+00  0.323E+00
   2.188  0.370E+00  0.317E+00
   2.208  0.364E+00  0.311E+00
   2.228  0.357E+00  0.304E+00
   2.248  0.349E+00  0.296E+00
   2.268  0.340E+00  0.288E+00
   2.288  0.331E+00  0.280E+00
   2.308  0.321E+00  0.271E+00
   2.328  0.311E+00  0.261E+00
   2.348  0.301E+00  0.252E+00
   2.368  0.290E+00  0.242E+00
   2.388  0.279E+00  0.232E+00
   2.408  0.268E+00  0.221E+00
   2.428  0.257E+00  0.211E+00
   2.448  0.245E+00  0.201E+00
   2.468  0.234E+00  0.191E+00
   2.488  0.224E+00  0.180E+00
   2.508  0.213E+00  0.170E+00
   2.528  0.203E+00  0.161E+00
   2.548  0.193E+00  0.151E+00
   2.568  0.184E+00  0.142E+00
   2.588  0.175E+00  0.134E+00
   2.608  0.167E+00  0.126E+00
   2.628  0.159E+00  0.118E+00
   2.648  0.152E+00  0.111E+00
   2.668  0.146E+00  0.104E+00
   2.688  0.141E+00  0.980E-01
   2.708  0.136E+00  0.925E-01
   2.728  0.133E+00  0.877E-01
   2.748  0.130E+00  0.834E-01
   2.768  0.127E+00  0.797E-01
   2.788  0.126E+00  0.765E-01
   2.808  0.125E+00  0.740E-01
   2.828  0.125E+00  0.720E-01
   2.848  0.126E+00  0.705E-01
   2.868  0.127E+00  0.696E-01
   2.888  0.128E+00  0.691E-01
   2.908  0.131E+00  0.691E-01
   2.928  0.133E+00  0.695E-01
   2.948  0.136E+00  0.703E-01
   2.968  0.139E+00  0.714E-01
   2.988  0.143E+00  0.729E-01
   3.008  0.147E+00  0.747E-01
   3.028  0.151E+00  0.767E-01
   3.048  0.155E+00  0.789E-01
   3.068  0.159E+00  0.813E-01
   3.088  0.163E+00  0.839E-01
   3.108  0.167E+00  0.866E-01
   3.128  0.171E+00  0.895E-01
   3.148  0.174E+00  0.924E-01
   3.168  0.178E+00  0.954E-01
   3.188  0.182E+00  0.984E-01
   3.208  0.185E+00  0.102E+00
   3.228  0.188E+00  0.105E+00
   3.248  0.191E+00  0.108E+00
   3.268  0.194E+00  0.111E+00
   3.288  0.196E+00  0.114E+00
   3.308  0.199E+00  0.118E+00
   3.328  0.201E+00  0.121E+00
   3.348  0.204E+00  0.124E+00
   3.368  0.206E+00  0.128E+00
   3.388  0.208E+00  0.131E+00
   3.408  0.211E+00  0.135E+00
   3.428  0.213E+00  0.139E+00
   3.448  0.216E+00  0.143E+00
   3.468  0.219E+00  0.147E+00
   3.488  0.223E+00  0.152E+00
   3.508  0.226E+00  0.157E+00
   3.528  0.230E+00  0.162E+00
   3.548  0.235E+00  0.167E+00
   3.568  0.240E+00  0.173E+00
   3.588  0.246E+00  0.180E+00
   3.608  0.253E+00  0.186E+00
   3.628  0.260E+00  0.193E+00
   3.648  0.268E+00  0.201E+00
   3.668  0.277E+00  0.209E+00
   3.688  0.287E+00  0.218E+00
   3.708  0.297E+00  0.227E+00
   3.728  0.309E+00  0.237E+00
   3.748  0.321E+00  0.247E+00
   3.768  0.335E+00  0.258E+00
   3.788  0.349E+00  0.270E+00
   3.808  0.364E+00  0.281E+00
   3.828  0.380E+00  0.294E+00
   3.848  0.397E+00  0.306E+00
   3.868  0.414E+00  0.319E+00
   3.888  0.432E+00  0.333E+00
   3.908  0.451E+00  0.346E+00
   3.928  0.469E+00  0.360E+00
   3.948  0.489E+00  0.374E+00
   3.968  0.508E+00  0.387E+00
   3.988  0.527E+00  0.401E+00
   4.008  0.547E+00  0.415E+00
   4.028  0.566E+00  0.428E+00
   4.048  0.584E+00  0.440E+00
   4.068  0.602E+00  0.453E+00
   4.088  0.619E+00  0.464E+00
   4.108  0.635E+00  0.475E+00
   4.128  0.650E+00  0.485E+00
   4.148  0.663E+00  0.494E+00
   4.168  0.675E+00  0.501E+00
   4.188  0.686E+00  0.508E+00
   4.208  0.694E+00  0.514E+00
   4.228  0.701E+00  0.518E+00
   4.248  0.706E+00  0.521E+00
   4.268  0.709E+00  0.522E+00
   4.288  0.710E+00  0.522E+00
   4.308  0.709E+00  0.521E+00
   4.328  0.706E+00  0.518E+00
   4.348  0.701E+00  0.514E+00
   4.368  0.694E+00  0.509E+00
   4.388  0.685E+00  0.502E+00
   4.408  0.675E+00  0.494E+00
   4.428  0.663E+00  0.486E+00
   4.448  0.650E+00  0.476E+00
   4.468  0.636E+00  0.466E+00
   4.488  0.621E+00  0.455E+00
   4.508  0.605E+00  0.443E+00
   4.528  0.588E+00  0.431E+00
   4.548  0.571E+00  0.419E+00
   4.568  0.554E+00  0.407E+00
   4.588  0.537E+00  0.395E+00
   4.608  0.521E+00  0.383E+00
   4.628  0.505E+00  0.372E+00
   4.648  0.489E+00  0.361E+00
   4.668  0.474E+00  0.350E+00
   4.688  0.460E+00  0.340E+00
   4.708  0.447E+00  0.331E+00
   4.728  0.435E+00  0.322E+00
   4.748  0.425E+00  0.315E+00
   4.768  0.415E+00  0.308E+00
   4.788  0.407E+00  0.302E+00
   4.808  0.400E+00  0.297E+00
   4.828  0.394E+00  0.293E+00
   4.848  0.390E+00  0.290E+00
   4.868  0.386E+00  0.288E+00
   4.888  0.384E+00  0.286E+00
   4.908  0.383E+00  0.285E+00
   4.928  0.382E+00  0.285E+00
   4.948  0.383E+00  0.286E+00
   4.968  0.385E+00  0.287E+00
   4.988  0.387E+00  0.289E+00
   5.008  0.390E+00  0.291E+00
   5.028  0.394E+00  0.294E+00
   5.048  0.399E+00  0.297E+00
   5.068  0.403E+00  0.301E+00
   5.088  0.409E+00  0.305E+00
   5.108  0.414E+00  0.309E+00
   5.128  0.420E+00  0.314E+00
   5.148  0.426E+00  0.318E+00
   5.168  0.433E+00  0.323E+00
   5.188  0.439E+00  0.327E+00
   5.208  0.445E+00  0.332E+00
   5.228  0.452E+00  0.337E+00
   5.248  0.458E+00  0.342E+00
   5.268  0.464E+00  0.346E+00
   5.288  0.470E+00  0.350E+00
   5.308  0.475E+00  0.354E+00
   5.328  0.481E+00  0.358E+00
   5.348  0.485E+00  0.362E+00
   5.368  0.490E+00  0.365E+00
   5.388  0.494E+00  0.368E+00
   5.408  0.497E+00  0.371E+00
   5.428  0.500E+00  0.373E+00
   5.448  0.502E+00  0.374E+00
   5.468  0.503E+00  0.376E+00
   5.488  0.504E+00  0.376E+00
   5.508  0.504E+00  0.376E+00
   5.528  0.503E+00  0.376E+00
   5.548  0.502E+00  0.375E+00
   5.568  0.500E+00  0.374E+00
   5.588  0.497E+00  0.371E+00
   5.608  0.494E+00  0.369E+00
   5.628  0.490E+00  0.366E+00
   5.648  0.485E+00  0.362E+00
   5.668  0.479E+00  0.358E+00
   5.688  0.473E+00  0.354E+00
   5.708  0.467E+00  0.349E+00
   5.728  0.460E+00  0.343E+00
   5.748  0.452E+00  0.338E+00
   5.768  0.445E+00  0.332E+00
   5.788  0.437E+00  0.326E+00
   5.808  0.429E+00  0.320E+00
   5.828  0.421E+00  0.313E+00
   5.848  0.413E+00  0.307E+00
   5.868  0.405E+00  0.301E+00
   5.888  0.397E+00  0.295E+00
   5.908  0.390E+00  0.289E+00
   5.928  0.383E+00  0.284E+00
   5.948  0.376E+00  0.279E+00
   5.968  0.370E+00  0.274E+00
   5.988  0.365E+00  0.269E+00
   6.008  0.360E+00  0.266E+00
   6.028  0.356E+00  0.262E+00
   6.048  0.353E+00  0.260E+00
   6.068  0.351E+00  0.258E+00
   6.088  0.349E+00  0.256E+00
   6.108  0.349E+00  0.256E+00
   6.128  0.350E+00  0.256E+00
   6.148  0.351E+00  0.257E+00
   6.168  0.354E+00  0.258E+00
   6.188  0.357E+00  0.260E+00
   6.208  0.362E+00  0.263E+00
   6.228  0.367E+00  0.267E+00
   6.248  0.373E+00  0.271E+00
   6.268  0.380E+00  0.276E+00
   6.288  0.388E+00  0.282E+00
   6.308  0.396E+00  0.288E+00
   6.328  0.405E+00  0.295E+00
   6.348  0.415E+00  0.302E+00
   6.368  0.425E+00  0.309E+00
   6.388  0.435E+00  0.317E+00
   6.408  0.446E+00  0.325E+00
   6.428  0.457E+00  0.333E+00
   6.448  0.468E+00  0.342E+00
   6.468  0.480E+00  0.350E+00
   6.488  0.491E+00  0.359E+00
   6.508  0.502E+00  0.367E+00
   6.528  0.513E+00  0.376E+00
   6.548  0.524E+00  0.384E+00
   6.568  0.535E+00  0.392E+00
   6.588  0.545E+00  0.400E+00
   6.608  0.554E+00  0.407E+00
   6.628  0.563E+00  0.414E+00
   6.648  0.572E+00  0.421E+00
   6.668  0.580E+00  0.427E+00
   6.688  0.587E+00  0.433E+00
   6.708  0.594E+00  0.438E+00
   6.728  0.600E+00  0.442E+00
   6.748  0.605E+00  0.446E+00
   6.768  0.609E+00  0.450E+00
   6.788  0.613E+00  0.452E+00
   6.808  0.616E+00  0.454E+00
   6.828  0.618E+00  0.456E+00
   6.848  0.620E+00  0.457E+00
   6.868  0.621E+00  0.457E+00
   6.888  0.621E+00  0.456E+00
   6.908  0.620E+00  0.455E+00
   6.928  0.619E+00  0.454E+00
   6.948  0.618E+00  0.452E+00
   6.968  0.616E+00  0.449E+00
   6.988  0.613E+00  0.446E+00
   7.008  0.610E+00  0.443E+00
   7.028  0.607E+00  0.439E+00
   7.048  0.603E+00  0.435E+00
   7.068  0.599E+00  0.431E+00
   7.088  0.595E+00  0.427E+00
   7.108  0.590E+00  0.422E+00
   7.128  0.586E+00  0.418E+00
   7.148  0.582E+00  0.413E+00
   7.168  0.577E+00  0.409E+00
   7.188  0.573E+00  0.404E+00
   7.208  0.569E+00  0.400E+00
   7.228  0.565E+00  0.396E+00
   7.248  0.561E+00  0.392E+00
   7.268  0.558E+00  0.388E+00
   7.288  0.555E+00  0.385E+00
   7.308  0.553E+00  0.382E+00
   7.328  0.551E+00  0.379E+00
   7.348  0.550E+00  0.377E+00
   7.368  0.550E+00  0.375E+00
   7.388  0.550E+00  0.374E+00
   7.408  0.551E+00  0.372E+00
   7.428  0.552E+00  0.372E+00
   7.448  0.554E+00  0.372E+00
   7.468  0.558E+00  0.372E+00
   7.488  0.561E+00  0.372E+00
   7.508  0.566E+00  0.373E+00
   7.528  0.572E+00  0.375E+00
   7.548  0.578E+00  0.376E+00
   7.568  0.584E+00  0.378E+00
   7.588  0.592E+00  0.381E+00
   7.608  0.600E+00  0.383E+00
   7.628  0.608E+00  0.386E+00
   7.648  0.617E+00  0.388E+00
   7.668  0.625E+00  0.391E+00
   7.688  0.634E+00  0.394E+00
   7.708  0.643E+00  0.397E+00
   7.728  0.652E+00  0.400E+00
   7.748  0.660E+00  0.402E+00
   7.768  0.668E+00  0.404E+00
   7.788  0.676E+00  0.406E+00
   7.808  0.682E+00  0.408E+00
   7.828  0.688E+00  0.409E+00
   7.848  0.693E+00  0.410E+00
   7.868  0.697E+00  0.410E+00
   7.888  0.699E+00  0.409E+00
   7.908  0.700E+00  0.408E+00
   7.928  0.700E+00  0.406E+00
   7.948  0.699E+00  0.404E+00
   7.968  0.696E+00  0.401E+00
   7.988  0.692E+00  0.397E+00
   8.008  0.687E+00  0.393E+00
   8.028  0.680E+00  0.388E+00
   8.048  0.672E+00  0.383E+00
   8.068  0.662E+00  0.376E+00
   8.088  0.652E+00  0.370E+00
   8.108  0.640E+00  0.362E+00
   8.128  0.628E+00  0.355E+00
   8.148  0.614E+00  0.347E+00
   8.168  0.600E+00  0.338E+00
   8.188  0.586E+00  0.330E+00
   8.208  0.571E+00  0.321E+00
   8.228  0.556E+00  0.312E+00
   8.248  0.540E+00  0.303E+00
   8.268  0.525E+00  0.294E+00
   8.288  0.510E+00  0.285E+00
   8.308  0.495E+00  0.276E+00
   8.328  0.480E+00  0.268E+00
   8.348  0.466E+00  0.259E+00
   8.368  0.453E+00  0.251E+00
   8.388  0.440E+00  0.243E+00
   8.408  0.428E+00  0.236E+00
   8.428  0.417E+00  0.229E+00
   8.448  0.407E+00  0.223E+00
   8.468  0.397E+00  0.217E+00
   8.488  0.389E+00  0.211E+00
   8.508  0.381E+00  0.206E+00
   8.528  0.375E+00  0.202E+00
   8.548  0.370E+00  0.198E+00
   8.568  0.365E+00  0.195E+00
   8.588  0.362E+00  0.193E+00
   8.608  0.360E+00  0.191E+00
   8.628  0.359E+00  0.190E+00
   8.648  0.359E+00  0.189E+00
   8.668  0.360E+00  0.189E+00
   8.688  0.363E+00  0.190E+00
   8.708  0.366E+00  0.192E+00
   8.728  0.371E+00  0.194E+00
   8.748  0.377E+00  0.197E+00
   8.768  0.384E+00  0.200E+00
   8.788  0.392E+00  0.205E+00
   8.808  0.401E+00  0.210E+00
   8.828  0.411E+00  0.215E+00
   8.848  0.422E+00  0.221E+00
   8.868  0.435E+00  0.228E+00
   8.888  0.448E+00  0.236E+00
   8.908  0.461E+00  0.243E+00
   8.928  0.476E+00  0.252E+00
   8.948  0.491E+00  0.261E+00
   8.968  0.507E+00  0.270E+00
   8.988  0.523E+00  0.279E+00
   9.008  0.540E+00  0.289E+00
   9.028  0.556E+00  0.299E+00
   9.048  0.573E+00  0.309E+00
   9.068  0.590E+00  0.319E+00
   9.088  0.606E+00  0.329E+00
   9.108  0.622E+00  0.338E+00
   9.128  0.638E+00  0.348E+00
   9.148  0.653E+00  0.357E+00
   9.168  0.667E+00  0.366E+00
   9.188  0.681E+00  0.374E+00
   9.208  0.693E+00  0.382E+00
   9.228  0.704E+00  0.389E+00
   9.248  0.714E+00  0.395E+00
   9.268  0.723E+00  0.401E+00
   9.288  0.731E+00  0.406E+00
   9.308  0.737E+00  0.410E+00
   9.328  0.741E+00  0.414E+00
   9.348  0.745E+00  0.416E+00
   9.368  0.746E+00  0.418E+00
   9.388  0.746E+00  0.419E+00
   9.408  0.745E+00  0.418E+00
   9.428  0.743E+00  0.417E+00
   9.448  0.738E+00  0.415E+00
   9.468  0.733E+00  0.413E+00
   9.488  0.727E+00  0.409E+00
   9.508  0.719E+00  0.405E+00
   9.528  0.710E+00  0.400E+00
   9.548  0.700E+00  0.394E+00
   9.568  0.690E+00  0.388E+00
   9.588  0.678E+00  0.381E+00
   9.608  0.666E+00  0.374E+00
   9.628  0.654E+00  0.367E+00
   9.648  0.641E+00  0.359E+00
   9.668  0.628E+00  0.351E+00
   9.688  0.615E+00  0.343E+00
   9.708  0.601E+00  0.335E+00
   9.728  0.589E+00  0.327E+00
   9.748  0.576E+00  0.319E+00
   9.768  0.563E+00  0.311E+00
   9.788  0.552E+00  0.304E+00
   9.808  0.540E+00  0.297E+00
   9.828  0.530E+00  0.291E+00
   9.848  0.520E+00  0.284E+00
   9.868  0.511E+00  0.279E+00
   9.888  0.503E+00  0.274E+00
   9.908  0.496E+00  0.270E+00
   9.928  0.489E+00  0.266E+00
   9.948  0.484E+00  0.263E+00
   9.968  0.480E+00  0.261E+00
   9.988  0.476E+00  0.259E+00
  10.008  0.474E+00  0.258E+00
  10.028  0.473E+00  0.258E+00
  10.048  0.472E+00  0.259E+00
  10.068  0.473E+00  0.260E+00
  10.088  0.475E+00  0.262E+00
  10.108  0.477E+00  0.265E+00
  10.128  0.481E+00  0.269E+00
  10.148  0.485E+00  0.273E+00
  10.168  0.490E+00  0.278E+00
  10.188  0.496E+00  0.283E+00
  10.208  0.502E+00  0.289E+00
  10.228  0.510E+00  0.295E+00
  10.248  0.518E+00  0.303E+00
  10.268  0.526E+00  0.310E+00
  10.288  0.535E+00  0.318E+00
  10.308  0.545E+00  0.327E+00
  10.328  0.555E+00  0.336E+00
  10.348  0.566E+00  0.345E+00
  10.368  0.577E+00  0.355E+00
  10.388  0.588E+00  0.365E+00
  10.408  0.599E+00  0.375E+00
  10.428  0.611E+00  0.385E+00
  10.448  0.623E+00  0.395E+00
  10.468  0.635E+00  0.406E+00
  10.488  0.646E+00  0.417E+00
  10.508  0.658E+00  0.427E+00
  10.528  0.669E+00  0.437E+00
  10.548  0.680E+00  0.448E+00
  10.568  0.691E+00  0.458E+00
  10.588  0.701E+00  0.467E+00
  10.608  0.711E+00  0.477E+00
  10.628  0.720E+00  0.485E+00
  10.648  0.729E+00  0.494E+00
  10.668  0.737E+00  0.502E+00
  10.688  0.744E+00  0.509E+00
  10.708  0.750E+00  0.516E+00
  10.728  0.756E+00  0.522E+00
  10.748  0.760E+00  0.527E+00
  10.768  0.764E+00  0.532E+00
  10.788  0.767E+00  0.535E+00
  10.808  0.768E+00  0.539E+00
  10.828  0.769E+00  0.541E+00
  10.848  0.770E+00  0.542E+00
  10.868  0.769E+00  0.543E+00
  10.888  0.767E+00  0.543E+00
  10.908  0.765E+00  0.543E+00
  10.928  0.761E+00  0.541E+00
  10.948  0.758E+00  0.539E+00
  10.968  0.753E+00  0.536E+00
  10.988  0.748E+00  0.533E+00
  11.008  0.742E+00  0.529E+00
  11.028  0.736E+00  0.524E+00
  11.048  0.729E+00  0.519E+00
  11.068  0.722E+00  0.514E+00
  11.088  0.714E+00  0.508E+00
  11.108  0.707E+00  0.502E+00
  11.128  0.699E+00  0.495E+00
  11.148  0.691E+00  0.489E+00
  11.168  0.683E+00  0.482E+00
  11.188  0.676E+00  0.475E+00
  11.208  0.668E+00  0.468E+00
  11.228  0.661E+00  0.461E+00
  11.248  0.653E+00  0.454E+00
  11.268  0.646E+00  0.447E+00
  11.288  0.640E+00  0.440E+00
  11.308  0.633E+00  0.433E+00
  11.328  0.628E+00  0.427E+00
  11.348  0.622E+00  0.421E+00
  11.368  0.617E+00  0.415E+00
  11.388  0.613E+00  0.410E+00
  11.408  0.609E+00  0.405E+00
  11.428  0.605E+00  0.400E+00
  11.448  0.602E+00  0.396E+00
  11.468  0.599E+00  0.392E+00
  11.488  0.597E+00  0.388E+00
  11.508  0.595E+00  0.385E+00
  11.528  0.593E+00  0.383E+00
  11.548  0.592E+00  0.381E+00
  11.568  0.590E+00  0.379E+00
  11.588  0.590E+00  0.377E+00
  11.608  0.589E+00  0.376E+00
  11.628  0.589E+00  0.376E+00
  11.648  0.589E+00  0.375E+00
  11.668  0.589E+00  0.375E+00
  11.688  0.589E+00  0.376E+00
  11.708  0.590E+00  0.377E+00
  11.728  0.591E+00  0.378E+00
  11.748  0.592E+00  0.379E+00
  11.768  0.593E+00  0.381E+00
  11.788  0.595E+00  0.383E+00
  11.808  0.598E+00  0.386E+00
  11.828  0.600E+00  0.389E+00
  11.848  0.603E+00  0.393E+00
  11.868  0.607E+00  0.396E+00
  11.888  0.611E+00  0.401E+00
  11.908  0.615E+00  0.405E+00
  11.928  0.620E+00  0.410E+00
  11.948  0.626E+00  0.415E+00
  11.968  0.632E+00  0.421E+00
  11.988  0.639E+00  0.427E+00
  12.008  0.647E+00  0.434E+00
  12.028  0.655E+00  0.441E+00
  12.048  0.663E+00  0.448E+00
  12.068  0.672E+00  0.455E+00
  12.088  0.682E+00  0.463E+00
  12.108  0.692E+00  0.471E+00
  12.128  0.702E+00  0.479E+00
  12.148  0.712E+00  0.487E+00
  12.168  0.723E+00  0.495E+00
  12.188  0.734E+00  0.503E+00
  12.208  0.745E+00  0.512E+00
  12.228  0.756E+00  0.520E+00
  12.248  0.767E+00  0.528E+00
  12.268  0.778E+00  0.536E+00
  12.288  0.789E+00  0.544E+00
  12.308  0.799E+00  0.551E+00
  12.328  0.809E+00  0.558E+00
  12.348  0.818E+00  0.565E+00
  12.368  0.827E+00  0.571E+00
  12.388  0.836E+00  0.577E+00
  12.408  0.843E+00  0.582E+00
  12.428  0.850E+00  0.587E+00
  12.448  0.857E+00  0.592E+00
  12.468  0.862E+00  0.596E+00
  12.488  0.867E+00  0.599E+00
  12.508  0.871E+00  0.602E+00
  12.528  0.875E+00  0.604E+00
  12.548  0.878E+00  0.606E+00
  12.568  0.880E+00  0.607E+00
  12.588  0.881E+00  0.608E+00
  12.608  0.882E+00  0.609E+00
  12.628  0.882E+00  0.609E+00
  12.648  0.882E+00  0.608E+00
  12.668  0.881E+00  0.607E+00
  12.688  0.880E+00  0.606E+00
  12.708  0.878E+00  0.605E+00
  12.728  0.876E+00  0.603E+00
  12.748  0.873E+00  0.601E+00
  12.768  0.870E+00  0.599E+00
  12.788  0.867E+00  0.597E+00
  12.808  0.864E+00  0.595E+00
  12.828  0.860E+00  0.592E+00
  12.848  0.856E+00  0.589E+00
  12.868  0.852E+00  0.586E+00
  12.888  0.848E+00  0.583E+00
  12.908  0.843E+00  0.580E+00
  12.928  0.839E+00  0.577E+00
  12.948  0.834E+00  0.574E+00
  12.968  0.829E+00  0.570E+00
  12.988  0.824E+00  0.567E+00
  13.008  0.819E+00  0.563E+00
  13.028  0.814E+00  0.560E+00
  13.048  0.809E+00  0.556E+00
  13.068  0.804E+00  0.553E+00
  13.088  0.800E+00  0.550E+00
  13.108  0.795E+00  0.547E+00
  13.128  0.790E+00  0.543E+00
  13.148  0.786E+00  0.540E+00
  13.168  0.782E+00  0.537E+00
  13.188  0.778E+00  0.535E+00
  13.208  0.774E+00  0.532E+00
  13.228  0.770E+00  0.530E+00
  13.248  0.767E+00  0.528E+00
  13.268  0.764E+00  0.526E+00
  13.288  0.761E+00  0.524E+00
  13.308  0.758E+00  0.522E+00
  13.328  0.755E+00  0.521E+00
  13.348  0.752E+00  0.519E+00
  13.368  0.749E+00  0.518E+00
  13.388  0.746E+00  0.517E+00
  13.408  0.743E+00  0.515E+00
  13.428  0.740E+00  0.514E+00
  13.448  0.736E+00  0.512E+00
  13.468  0.732E+00  0.510E+00
  13.488  0.727E+00  0.508E+00
  13.508  0.722E+00  0.505E+00
  13.528  0.716E+00  0.502E+00
  13.548  0.710E+00  0.498E+00
  13.568  0.703E+00  0.494E+00
  13.588  0.695E+00  0.490E+00
  13.608  0.686E+00  0.485E+00
  13.628  0.676E+00  0.479E+00
  13.648  0.666E+00  0.473E+00
  13.668  0.655E+00  0.466E+00
  13.688  0.643E+00  0.459E+00
  13.708  0.630E+00  0.451E+00
  13.728  0.617E+00  0.443E+00
  13.748  0.604E+00  0.434E+00
  13.768  0.590E+00  0.425E+00
  13.788  0.575E+00  0.416E+00
  13.808  0.561E+00  0.406E+00
  13.828  0.546E+00  0.397E+00
  13.848  0.532E+00  0.387E+00
  13.868  0.518E+00  0.378E+00
  13.888  0.504E+00  0.368E+00
  13.908  0.490E+00  0.359E+00
  13.928  0.477E+00  0.351E+00
  13.948  0.465E+00  0.343E+00
  13.968  0.454E+00  0.335E+00
  13.988  0.443E+00  0.328E+00
  14.008  0.434E+00  0.322E+00
  14.028  0.425E+00  0.316E+00
  14.048  0.418E+00  0.311E+00
  14.068  0.411E+00  0.307E+00
  14.088  0.406E+00  0.304E+00
  14.108  0.402E+00  0.301E+00
  14.128  0.399E+00  0.299E+00
  14.148  0.397E+00  0.298E+00
  14.168  0.396E+00  0.298E+00
  14.188  0.396E+00  0.299E+00
  14.208  0.397E+00  0.300E+00
  14.228  0.399E+00  0.301E+00
  14.248  0.402E+00  0.304E+00
  14.268  0.405E+00  0.306E+00
  14.288  0.409E+00  0.309E+00
  14.308  0.413E+00  0.313E+00
  14.328  0.417E+00  0.316E+00
  14.348  0.422E+00  0.320E+00
  14.368  0.426E+00  0.323E+00
  14.388  0.431E+00  0.327E+00
  14.408  0.435E+00  0.330E+00
  14.428  0.439E+00  0.333E+00
  14.448  0.442E+00  0.336E+00
  14.468  0.446E+00  0.338E+00
  14.488  0.448E+00  0.340E+00
  14.508  0.450E+00  0.342E+00
  14.528  0.451E+00  0.343E+00
  14.548  0.452E+00  0.344E+00
  14.568  0.452E+00  0.344E+00
  14.588  0.451E+00  0.343E+00
  14.608  0.449E+00  0.342E+00
  14.628  0.447E+00  0.341E+00
  14.648  0.444E+00  0.339E+00
  14.668  0.440E+00  0.336E+00
  14.688  0.436E+00  0.333E+00
  14.708  0.431E+00  0.330E+00
  14.728  0.426E+00  0.326E+00
  14.748  0.420E+00  0.322E+00
  14.768  0.414E+00  0.318E+00
  14.788  0.407E+00  0.313E+00
  14.808  0.400E+00  0.309E+00
  14.828  0.393E+00  0.304E+00
  14.848  0.385E+00  0.299E+00
  14.868  0.378E+00  0.293E+00
  14.888  0.371E+00  0.288E+00
  14.908  0.363E+00  0.283E+00
  14.928  0.356E+00  0.278E+00
  14.948  0.349E+00  0.273E+00
  14.968  0.342E+00  0.268E+00
  14.988  0.335E+00  0.263E+00
  15.008  0.328E+00  0.258E+00
  15.028  0.322E+00  0.254E+00
  15.048  0.315E+00  0.249E+00
  15.068  0.309E+00  0.245E+00
  15.088  0.304E+00  0.241E+00
  15.108  0.298E+00  0.237E+00
  15.128  0.293E+00  0.233E+00
  15.148  0.288E+00  0.229E+00
  15.168  0.283E+00  0.226E+00
  15.188  0.278E+00  0.222E+00
  15.208  0.274E+00  0.219E+00
  15.228  0.269E+00  0.216E+00
  15.248  0.265E+00  0.213E+00
  15.268  0.261E+00  0.209E+00
  15.288  0.256E+00  0.206E+00
  15.308  0.252E+00  0.203E+00
  15.328  0.248E+00  0.200E+00
  15.348  0.244E+00  0.197E+00
  15.368  0.239E+00  0.193E+00
  15.388  0.235E+00  0.190E+00
  15.408  0.230E+00  0.186E+00
  15.428  0.226E+00  0.183E+00
  15.448  0.221E+00  0.179E+00
  15.468  0.216E+00  0.175E+00
  15.488  0.211E+00  0.171E+00
  15.508  0.206E+00  0.167E+00
  15.528  0.201E+00  0.163E+00
  15.548  0.196E+00  0.159E+00
  15.568  0.191E+00  0.155E+00
  15.588  0.187E+00  0.151E+00
  15.608  0.182E+00  0.147E+00
  15.628  0.178E+00  0.144E+00
  15.648  0.174E+00  0.140E+00
  15.668  0.170E+00  0.137E+00
  15.688  0.167E+00  0.134E+00
  15.708  0.165E+00  0.132E+00
  15.728  0.164E+00  0.130E+00
  15.748  0.163E+00  0.129E+00
  15.768  0.163E+00  0.129E+00
  15.788  0.165E+00  0.129E+00
  15.808  0.168E+00  0.131E+00
  15.828  0.172E+00  0.133E+00
  15.848  0.177E+00  0.136E+00
  15.868  0.184E+00  0.141E+00
  15.888  0.192E+00  0.146E+00
  15.908  0.202E+00  0.153E+00
  15.928  0.214E+00  0.161E+00
  15.948  0.227E+00  0.170E+00
  15.968  0.241E+00  0.180E+00
  15.988  0.258E+00  0.191E+00
  16.008  0.275E+00  0.203E+00
  16.028  0.294E+00  0.217E+00
  16.048  0.314E+00  0.231E+00
  16.068  0.336E+00  0.246E+00
  16.088  0.358E+00  0.262E+00
  16.108  0.381E+00  0.279E+00
  16.128  0.405E+00  0.296E+00
  16.148  0.429E+00  0.313E+00
  16.168  0.453E+00  0.331E+00
  16.188  0.477E+00  0.348E+00
  16.208  0.500E+00  0.365E+00
  16.228  0.523E+00  0.382E+00
  16.248  0.545E+00  0.398E+00
  16.268  0.566E+00  0.413E+00
  16.288  0.585E+00  0.427E+00
  16.308  0.603E+00  0.440E+00
  16.328  0.619E+00  0.452E+00
  16.348  0.633E+00  0.462E+00
  16.368  0.645E+00  0.471E+00
  16.388  0.654E+00  0.478E+00
  16.408  0.662E+00  0.483E+00
  16.428  0.666E+00  0.486E+00
  16.448  0.668E+00  0.488E+00
  16.468  0.668E+00  0.488E+00
  16.488  0.665E+00  0.486E+00
  16.508  0.660E+00  0.482E+00
  16.528  0.653E+00  0.477E+00
  16.548  0.644E+00  0.471E+00
  16.568  0.633E+00  0.463E+00
  16.588  0.620E+00  0.453E+00
  16.608  0.606E+00  0.443E+00
  16.628  0.591E+00  0.432E+00
  16.648  0.575E+00  0.420E+00
  16.668  0.558E+00  0.407E+00
  16.688  0.541E+00  0.395E+00
  16.708  0.523E+00  0.382E+00
  16.728  0.506E+00  0.369E+00
  16.748  0.488E+00  0.356E+00
  16.768  0.471E+00  0.343E+00
  16.788  0.455E+00  0.331E+00
  16.808  0.440E+00  0.320E+00
  16.828  0.425E+00  0.309E+00
  16.848  0.411E+00  0.298E+00
  16.868  0.399E+00  0.289E+00
  16.888  0.387E+00  0.280E+00
  16.908  0.377E+00  0.272E+00
  16.928  0.367E+00  0.265E+00
  16.948  0.359E+00  0.258E+00
  16.968  0.351E+00  0.252E+00
  16.988  0.344E+00  0.247E+00
  17.008  0.338E+00  0.242E+00
  17.028  0.333E+00  0.238E+00
  17.048  0.328E+00  0.234E+00
  17.068  0.323E+00  0.230E+00
  17.088  0.319E+00  0.227E+00
  17.108  0.315E+00  0.224E+00
  17.128  0.310E+00  0.220E+00
  17.148  0.306E+00  0.217E+00
  17.168  0.302E+00  0.214E+00
  17.188  0.297E+00  0.210E+00
  17.208  0.292E+00  0.207E+00
  17.228  0.287E+00  0.203E+00
  17.248  0.281E+00  0.199E+00
  17.268  0.275E+00  0.194E+00
  17.288  0.269E+00  0.190E+00
  17.308  0.262E+00  0.185E+00
  17.328  0.255E+00  0.180E+00
  17.348  0.248E+00  0.174E+00
  17.368  0.240E+00  0.169E+00
  17.388  0.232E+00  0.163E+00
  17.408  0.224E+00  0.158E+00
  17.428  0.216E+00  0.152E+00
  17.448  0.208E+00  0.146E+00
  17.468  0.200E+00  0.141E+00
  17.488  0.192E+00  0.135E+00
  17.508  0.184E+00  0.129E+00
  17.528  0.177E+00  0.124E+00
  17.548  0.170E+00  0.119E+00
  17.568  0.163E+00  0.114E+00
  17.588  0.156E+00  0.109E+00
  17.608  0.150E+00  0.105E+00
  17.628  0.144E+00  0.100E+00
  17.648  0.138E+00  0.963E-01
  17.668  0.133E+00  0.925E-01
  17.688  0.128E+00  0.890E-01
  17.708  0.123E+00  0.857E-01
  17.728  0.119E+00  0.827E-01
  17.748  0.115E+00  0.799E-01
  17.768  0.112E+00  0.773E-01
  17.788  0.109E+00  0.750E-01
  17.808  0.106E+00  0.729E-01
  17.828  0.104E+00  0.710E-01
  17.848  0.102E+00  0.693E-01
  17.868  0.100E+00  0.679E-01
  17.888  0.987E-01  0.667E-01
  17.908  0.979E-01  0.658E-01
  17.928  0.976E-01  0.651E-01
  17.948  0.977E-01  0.648E-01
  17.968  0.984E-01  0.647E-01
  17.988  0.996E-01  0.649E-01
  18.008  0.101E+00  0.654E-01
  18.028  0.104E+00  0.664E-01
  18.048  0.107E+00  0.676E-01
  18.068  0.111E+00  0.693E-01
  18.088  0.115E+00  0.714E-01
  18.108  0.120E+00  0.739E-01
  18.128  0.126E+00  0.768E-01
  18.148  0.133E+00  0.801E-01
  18.168  0.140E+00  0.839E-01
  18.188  0.149E+00  0.881E-01
  18.208  0.158E+00  0.926E-01
  18.228  0.167E+00  0.976E-01
  18.248  0.177E+00  0.103E+00
  18.268  0.188E+00  0.109E+00
  18.288  0.200E+00  0.114E+00
  18.308  0.211E+00  0.121E+00
  18.328  0.224E+00  0.127E+00
  18.348  0.236E+00  0.133E+00
  18.368  0.248E+00  0.140E+00
  18.388  0.261E+00  0.146E+00
  18.408  0.273E+00  0.153E+00
  18.428  0.285E+00  0.159E+00
  18.448  0.297E+00  0.165E+00
  18.468  0.308E+00  0.171E+00
  18.488  0.318E+00  0.176E+00
  18.508  0.327E+00  0.180E+00
  18.528  0.336E+00  0.185E+00
  18.548  0.343E+00  0.188E+00
  18.568  0.349E+00  0.191E+00
  18.588  0.354E+00  0.194E+00
  18.608  0.358E+00  0.195E+00
  18.628  0.360E+00  0.196E+00
  18.648  0.361E+00  0.196E+00
  18.668  0.360E+00  0.195E+00
  18.688  0.358E+00  0.194E+00
  18.708  0.354E+00  0.191E+00
  18.728  0.349E+00  0.188E+00
  18.748  0.343E+00  0.185E+00
  18.768  0.335E+00  0.180E+00
  18.788  0.327E+00  0.175E+00
  18.808  0.317E+00  0.169E+00
  18.828  0.306E+00  0.163E+00
  18.848  0.295E+00  0.157E+00
  18.868  0.282E+00  0.150E+00
  18.888  0.269E+00  0.143E+00
  18.908  0.256E+00  0.135E+00
  18.928  0.242E+00  0.128E+00
  18.948  0.228E+00  0.120E+00
  18.968  0.214E+00  0.113E+00
  18.988  0.200E+00  0.105E+00
  19.008  0.187E+00  0.977E-01
  19.028  0.173E+00  0.904E-01
  19.048  0.160E+00  0.833E-01
  19.068  0.147E+00  0.765E-01
  19.088  0.135E+00  0.699E-01
  19.108  0.123E+00  0.637E-01
  19.128  0.112E+00  0.578E-01
  19.148  0.102E+00  0.523E-01
  19.168  0.919E-01  0.471E-01
  19.188  0.828E-01  0.423E-01
  19.208  0.743E-01  0.378E-01
  19.228  0.665E-01  0.337E-01
  19.248  0.594E-01  0.300E-01
  19.268  0.529E-01  0.266E-01
  19.288  0.471E-01  0.235E-01
  19.308  0.419E-01  0.208E-01
  19.328  0.373E-01  0.184E-01
  19.348  0.333E-01  0.163E-01
  19.368  0.298E-01  0.144E-01
  19.388  0.269E-01  0.129E-01
  19.408  0.245E-01  0.116E-01
  19.428  0.226E-01  0.105E-01
  19.448  0.212E-01  0.963E-02
  19.468  0.202E-01  0.899E-02
  19.488  0.197E-01  0.857E-02
  19.508  0.196E-01  0.834E-02
  19.528  0.199E-01  0.830E-02
  19.548  0.207E-01  0.845E-02
  19.568  0.218E-01  0.877E-02
  19.588  0.234E-01  0.927E-02
  19.608  0.254E-01  0.993E-02
  19.628  0.277E-01  0.108E-01
  19.648  0.305E-01  0.118E-01
  19.668  0.336E-01  0.129E-01
  19.688  0.371E-01  0.142E-01
  19.708  0.409E-01  0.157E-01
  19.728  0.451E-01  0.173E-01
  19.748  0.497E-01  0.190E-01
  19.768  0.545E-01  0.208E-01
  19.788  0.596E-01  0.228E-01
  19.808  0.650E-01  0.249E-01
  19.828  0.706E-01  0.271E-01
  19.848  0.764E-01  0.294E-01
  19.868  0.823E-01  0.317E-01
  19.888  0.883E-01  0.341E-01
  19.908  0.943E-01  0.364E-01
  19.928  0.100E+00  0.388E-01
  19.948  0.106E+00  0.412E-01
  19.968  0.112E+00  0.435E-01
  19.988  0.118E+00  0.458E-01
  20.008  0.123E+00  0.480E-01
  20.028  0.128E+00  0.500E-01
  20.048  0.133E+00  0.519E-01
  20.068  0.137E+00  0.537E-01
  20.088  0.140E+00  0.553E-01
  20.108  0.143E+00  0.566E-01
  20.128  0.146E+00  0.578E-01
  20.148  0.148E+00  0.587E-01
  20.168  0.149E+00  0.594E-01
  20.188  0.150E+00  0.598E-01
  20.208  0.150E+00  0.600E-01
  20.228  0.149E+00  0.599E-01
  20.248  0.148E+00  0.596E-01
  20.268  0.146E+00  0.591E-01
  20.288  0.144E+00  0.583E-01
  20.308  0.141E+00  0.573E-01
  20.328  0.137E+00  0.562E-01
  20.348  0.134E+00  0.549E-01
  20.368  0.129E+00  0.534E-01
  20.388  0.125E+00  0.519E-01
  20.408  0.120E+00  0.502E-01
  20.428  0.115E+00  0.485E-01
  20.448  0.110E+00  0.468E-01
  20.468  0.105E+00  0.451E-01
  20.488  0.998E-01  0.435E-01
  20.508  0.949E-01  0.420E-01
  20.528  0.902E-01  0.405E-01
  20.548  0.857E-01  0.392E-01
  20.568  0.814E-01  0.381E-01
  20.588  0.776E-01  0.371E-01
  20.608  0.741E-01  0.364E-01
  20.628  0.710E-01  0.359E-01
  20.648  0.684E-01  0.356E-01
  20.668  0.662E-01  0.356E-01
  20.688  0.646E-01  0.358E-01
  20.708  0.634E-01  0.362E-01
  20.728  0.626E-01  0.370E-01
  20.748  0.624E-01  0.379E-01
  20.768  0.626E-01  0.391E-01
  20.788  0.632E-01  0.406E-01
  20.808  0.642E-01  0.422E-01
  20.828  0.655E-01  0.440E-01
  20.848  0.672E-01  0.459E-01
  20.868  0.691E-01  0.480E-01
  20.888  0.712E-01  0.501E-01
  20.908  0.735E-01  0.523E-01
  20.928  0.760E-01  0.545E-01
  20.948  0.784E-01  0.568E-01
  20.968  0.809E-01  0.589E-01
  20.988  0.833E-01  0.610E-01
  21.008  0.857E-01  0.630E-01
  21.028  0.878E-01  0.648E-01
  21.048  0.898E-01  0.665E-01
  21.068  0.915E-01  0.679E-01
  21.088  0.930E-01  0.691E-01
  21.108  0.942E-01  0.701E-01
  21.128  0.950E-01  0.708E-01
  21.148  0.954E-01  0.712E-01
  21.168  0.955E-01  0.713E-01
  21.188  0.952E-01  0.712E-01
  21.208  0.946E-01  0.707E-01
  21.228  0.935E-01  0.700E-01
  21.248  0.921E-01  0.689E-01
  21.268  0.903E-01  0.676E-01
  21.288  0.882E-01  0.661E-01
  21.308  0.858E-01  0.643E-01
  21.328  0.831E-01  0.623E-01
  21.348  0.801E-01  0.601E-01
  21.368  0.770E-01  0.577E-01
  21.388  0.736E-01  0.552E-01
  21.408  0.701E-01  0.526E-01
  21.428  0.665E-01  0.499E-01
  21.448  0.628E-01  0.471E-01
  21.468  0.591E-01  0.443E-01
  21.488  0.553E-01  0.415E-01
  21.508  0.516E-01  0.388E-01
  21.528  0.480E-01  0.360E-01
  21.548  0.444E-01  0.334E-01
  21.568  0.410E-01  0.308E-01
  21.588  0.377E-01  0.283E-01
  21.608  0.345E-01  0.260E-01
  21.628  0.316E-01  0.238E-01
  21.648  0.288E-01  0.217E-01
  21.668  0.263E-01  0.198E-01
  21.688  0.239E-01  0.180E-01
  21.708  0.218E-01  0.165E-01
  21.728  0.199E-01  0.150E-01
  21.748  0.182E-01  0.138E-01
  21.768  0.168E-01  0.128E-01
  21.788  0.157E-01  0.119E-01
  21.808  0.147E-01  0.112E-01
  21.828  0.140E-01  0.108E-01
  21.848  0.136E-01  0.105E-01
  21.868  0.134E-01  0.103E-01
  21.888  0.134E-01  0.104E-01
  21.908  0.137E-01  0.107E-01
  21.928  0.142E-01  0.111E-01
  21.948  0.149E-01  0.117E-01
  21.968  0.159E-01  0.125E-01
  21.988  0.171E-01  0.134E-01
  22.008  0.185E-01  0.146E-01
  22.028  0.200E-01  0.159E-01
  22.048  0.218E-01  0.173E-01
  22.068  0.238E-01  0.189E-01
  22.088  0.259E-01  0.206E-01
  22.108  0.282E-01  0.224E-01
  22.128  0.306E-01  0.243E-01
  22.148  0.332E-01  0.263E-01
  22.168  0.358E-01  0.284E-01
  22.188  0.385E-01  0.305E-01
  22.208  0.412E-01  0.327E-01
  22.228  0.439E-01  0.349E-01
  22.248  0.466E-01  0.370E-01
  22.268  0.492E-01  0.391E-01
  22.288  0.518E-01  0.411E-01
  22.308  0.542E-01  0.431E-01
  22.328  0.565E-01  0.449E-01
  22.348  0.586E-01  0.466E-01
  22.368  0.605E-01  0.481E-01
  22.388  0.622E-01  0.494E-01
  22.408  0.636E-01  0.505E-01
  22.428  0.648E-01  0.515E-01
  22.448  0.656E-01  0.521E-01
  22.468  0.661E-01  0.525E-01
  22.488  0.663E-01  0.527E-01
  22.508  0.663E-01  0.526E-01
  22.528  0.658E-01  0.523E-01
  22.548  0.651E-01  0.517E-01
  22.568  0.641E-01  0.509E-01
  22.588  0.628E-01  0.499E-01
  22.608  0.612E-01  0.486E-01
  22.628  0.594E-01  0.472E-01
  22.648  0.573E-01  0.456E-01
  22.668  0.551E-01  0.438E-01
  22.688  0.527E-01  0.419E-01
  22.708  0.502E-01  0.399E-01
  22.728  0.475E-01  0.377E-01
  22.748  0.448E-01  0.356E-01
  22.768  0.420E-01  0.334E-01
  22.788  0.392E-01  0.312E-01
  22.808  0.364E-01  0.290E-01
  22.828  0.337E-01  0.268E-01
  22.848  0.310E-01  0.246E-01
  22.868  0.284E-01  0.226E-01
  22.888  0.259E-01  0.206E-01
  22.908  0.235E-01  0.187E-01
  22.928  0.212E-01  0.169E-01
  22.948  0.191E-01  0.151E-01
  22.968  0.170E-01  0.135E-01
  22.988  0.152E-01  0.120E-01
  23.008  0.134E-01  0.107E-01
  23.028  0.118E-01  0.940E-02
  23.048  0.104E-01  0.825E-02
  23.068  0.906E-02  0.720E-02
  23.088  0.787E-02  0.626E-02
  23.108  0.681E-02  0.541E-02
  23.128  0.586E-02  0.465E-02
  23.148  0.502E-02  0.399E-02
  23.168  0.427E-02  0.340E-02
  23.188  0.363E-02  0.288E-02
  23.208  0.306E-02  0.243E-02
  23.228  0.257E-02  0.204E-02
  23.248  0.215E-02  0.171E-02
  23.268  0.179E-02  0.142E-02
  23.288  0.148E-02  0.118E-02
  23.308  0.122E-02  0.970E-03
  23.328  0.100E-02  0.796E-03
  23.348  0.817E-03  0.650E-03
  23.368  0.664E-03  0.528E-03
  23.388  0.537E-03  0.427E-03
  23.408  0.433E-03  0.344E-03
  23.428  0.348E-03  0.276E-03
  23.448  0.278E-03  0.221E-03
  23.468  0.222E-03  0.176E-03
  23.488  0.177E-03  0.140E-03
  23.508  0.141E-03  0.112E-03
  23.528  0.113E-03  0.900E-04
  23.548  0.921E-04  0.730E-04
  23.568  0.762E-04  0.604E-04
  23.588  0.650E-04  0.514E-04
  23.608  0.577E-04  0.456E-04
  23.628  0.540E-04  0.425E-04
  23.648  0.535E-04  0.420E-04
  23.668  0.560E-04  0.439E-04
  23.688  0.614E-04  0.480E-04
  23.708  0.697E-04  0.545E-04
  23.728  0.812E-04  0.633E-04
  23.748  0.960E-04  0.748E-04
  23.768  0.114E-03  0.891E-04
  23.788  0.137E-03  0.106E-03
  23.808  0.163E-03  0.127E-03
  23.828  0.195E-03  0.152E-03
  23.848  0.232E-03  0.181E-03
  23.868  0.275E-03  0.214E-03
  23.888  0.325E-03  0.253E-03
  23.908  0.382E-03  0.297E-03
  23.928  0.447E-03  0.348E-03
  23.948  0.521E-03  0.406E-03
  23.968  0.604E-03  0.470E-03
  23.988  0.697E-03  0.543E-03
  24.008  0.801E-03  0.624E-03
  24.028  0.915E-03  0.713E-03
  24.048  0.104E-02  0.811E-03
  24.068  0.118E-02  0.918E-03
  24.088  0.133E-02  0.103E-02
  24.108  0.149E-02  0.116E-02
  24.128  0.166E-02  0.130E-02
  24.148  0.185E-02  0.144E-02
  24.168  0.204E-02  0.159E-02
  24.188  0.225E-02  0.175E-02
  24.208  0.246E-02  0.192E-02
  24.228  0.268E-02  0.209E-02
  24.248  0.291E-02  0.226E-02
  24.268  0.314E-02  0.244E-02
  24.288  0.337E-02  0.262E-02
  24.308  0.360E-02  0.280E-02
  24.328  0.383E-02  0.298E-02
  24.348  0.405E-02  0.316E-02
  24.368  0.427E-02  0.333E-02
  24.388  0.448E-02  0.349E-02
  24.408  0.467E-02  0.364E-02
  24.428  0.485E-02  0.378E-02
  24.448  0.502E-02  0.391E-02
  24.468  0.516E-02  0.402E-02
  24.488  0.528E-02  0.411E-02
  24.508  0.538E-02  0.419E-02
  24.528  0.545E-02  0.425E-02
  24.548  0.550E-02  0.429E-02
  24.568  0.553E-02  0.430E-02
  24.588  0.552E-02  0.430E-02
  24.608  0.549E-02  0.428E-02
  24.628  0.544E-02  0.423E-02
  24.648  0.536E-02  0.417E-02
  24.668  0.525E-02  0.409E-02
  24.688  0.512E-02  0.399E-02
  24.708  0.497E-02  0.387E-02
  24.728  0.481E-02  0.374E-02
  24.748  0.462E-02  0.360E-02
  24.768  0.443E-02  0.345E-02
  24.788  0.421E-02  0.328E-02
  24.808  0.400E-02  0.311E-02
  24.828  0.377E-02  0.294E-02
  24.848  0.354E-02  0.276E-02
  24.868  0.331E-02  0.258E-02
  24.888  0.308E-02  0.239E-02
  24.908  0.285E-02  0.222E-02
  24.928  0.262E-02  0.204E-02
  24.948  0.240E-02  0.187E-02
  24.968  0.219E-02  0.171E-02
  24.988  0.199E-02  0.155E-02
  25.008  0.180E-02  0.140E-02
  25.028  0.162E-02  0.126E-02
  25.048  0.145E-02  0.113E-02
  25.068  0.129E-02  0.100E-02
  25.088  0.114E-02  0.889E-03
  25.108  0.101E-02  0.784E-03
  25.128  0.884E-03  0.689E-03
  25.148  0.772E-03  0.602E-03
  25.168  0.672E-03  0.523E-03
  25.188  0.581E-03  0.453E-03
  25.208  0.500E-03  0.390E-03
  25.228  0.429E-03  0.334E-03
  25.248  0.366E-03  0.285E-03
  25.268  0.311E-03  0.242E-03
  25.288  0.262E-03  0.204E-03
  25.308  0.221E-03  0.172E-03
  25.328  0.185E-03  0.144E-03
  25.348  0.154E-03  0.120E-03
  25.368  0.127E-03  0.992E-04
  25.388  0.105E-03  0.818E-04
  25.408  0.862E-04  0.671E-04
  25.428  0.704E-04  0.548E-04
  25.448  0.572E-04  0.446E-04
  25.468  0.463E-04  0.361E-04
  25.488  0.373E-04  0.290E-04
  25.508  0.299E-04  0.233E-04
  25.528  0.238E-04  0.186E-04
  25.548  0.189E-04  0.147E-04
  25.568  0.149E-04  0.116E-04
  25.588  0.117E-04  0.914E-05
  25.608  0.918E-05  0.715E-05
  25.628  0.715E-05  0.557E-05
  25.648  0.554E-05  0.431E-05
  25.668  0.427E-05  0.333E-05
  25.688  0.328E-05  0.255E-05
  25.708  0.250E-05  0.195E-05
  25.728  0.190E-05  0.148E-05
  25.748  0.144E-05  0.112E-05
  25.768  0.108E-05  0.844E-06
  25.788  0.812E-06  0.632E-06
  25.808  0.605E-06  0.471E-06
