# E (eV)  dos(E)    pdos(E)
  -4.222  0.144E-05  0.143E-05
  -4.202  0.194E-05  0.193E-05
  -4.182  0.260E-05  0.258E-05
  -4.162  0.348E-05  0.345E-05
  -4.142  0.463E-05  0.459E-05
  -4.122  0.613E-05  0.608E-05
  -4.102  0.808E-05  0.801E-05
  -4.082  0.106E-04  0.105E-04
  -4.062  0.138E-04  0.137E-04
  -4.042  0.180E-04  0.179E-04
  -4.022  0.233E-04  0.231E-04
  -4.002  0.301E-04  0.298E-04
  -3.982  0.386E-04  0.383E-04
  -3.962  0.493E-04  0.489E-04
  -3.942  0.628E-04  0.623E-04
  -3.922  0.795E-04  0.789E-04
  -3.902  0.100E-03  0.995E-04
  -3.882  0.126E-03  0.125E-03
  -3.862  0.158E-03  0.156E-03
  -3.842  0.196E-03  0.195E-03
  -3.822  0.243E-03  0.241E-03
  -3.802  0.300E-03  0.298E-03
  -3.782  0.369E-03  0.366E-03
  -3.762  0.452E-03  0.449E-03
  -3.742  0.551E-03  0.547E-03
  -3.722  0.669E-03  0.664E-03
  -3.702  0.809E-03  0.803E-03
  -3.682  0.974E-03  0.966E-03
  -3.662  0.117E-02  0.116E-02
  -3.642  0.139E-02  0.138E-02
  -3.622  0.166E-02  0.165E-02
  -3.602  0.196E-02  0.195E-02
  -3.582  0.232E-02  0.230E-02
  -3.562  0.272E-02  0.270E-02
  -3.542  0.319E-02  0.316E-02
  -3.522  0.372E-02  0.369E-02
  -3.502  0.432E-02  0.428E-02
  -3.482  0.499E-02  0.496E-02
  -3.462  0.576E-02  0.571E-02
  -3.442  0.661E-02  0.656E-02
  -3.422  0.756E-02  0.750E-02
  -3.402  0.861E-02  0.855E-02
  -3.382  0.977E-02  0.970E-02
  -3.362  0.111E-01  0.110E-01
  -3.342  0.125E-01  0.124E-01
  -3.322  0.140E-01  0.139E-01
  -3.302  0.156E-01  0.155E-01
  -3.282  0.174E-01  0.173E-01
  -3.262  0.194E-01  0.192E-01
  -3.242  0.215E-01  0.213E-01
  -3.222  0.237E-01  0.235E-01
  -3.202  0.260E-01  0.258E-01
  -3.182  0.285E-01  0.283E-01
  -3.162  0.312E-01  0.310E-01
  -3.142  0.340E-01  0.337E-01
  -3.122  0.369E-01  0.366E-01
  -3.102  0.399E-01  0.396E-01
  -3.082  0.431E-01  0.428E-01
  -3.062  0.464E-01  0.460E-01
  -3.042  0.497E-01  0.494E-01
  -3.022  0.532E-01  0.528E-01
  -3.002  0.568E-01  0.564E-01
  -2.982  0.605E-01  0.600E-01
  -2.962  0.642E-01  0.637E-01
  -2.942  0.680E-01  0.675E-01
  -2.922  0.718E-01  0.713E-01
  -2.902  0.757E-01  0.752E-01
  -2.882  0.796E-01  0.790E-01
  -2.862  0.836E-01  0.830E-01
  -2.842  0.875E-01  0.869E-01
  -2.822  0.915E-01  0.908E-01
  -2.802  0.954E-01  0.948E-01
  -2.782  0.994E-01  0.987E-01
  -2.762  0.103E+00  0.103E+00
  -2.742  0.107E+00  0.106E+00
  -2.722  0.111E+00  0.110E+00
  -2.702  0.115E+00  0.114E+00
  -2.682  0.119E+00  0.118E+00
  -2.662  0.122E+00  0.121E+00
  -2.642  0.126E+00  0.125E+00
  -2.622  0.130E+00  0.129E+00
  -2.602  0.133E+00  0.132E+00
  -2.582  0.137E+00  0.136E+00
  -2.562  0.140E+00  0.139E+00
  -2.542  0.143E+00  0.142E+00
  -2.522  0.146E+00  0.145E+00
  -2.502  0.149E+00  0.148E+00
  -2.482  0.152E+00  0.151E+00
  -2.462  0.155E+00  0.154E+00
  -2.442  0.158E+00  0.157E+00
  -2.422  0.161E+00  0.160E+00
  -2.402  0.164E+00  0.163E+00
  -2.382  0.166E+00  0.165E+00
  -2.362  0.169E+00  0.168E+00
  -2.342  0.171E+00  0.170E+00
  -2.322  0.174E+00  0.173E+00
  -2.302  0.176E+00  0.175E+00
  -2.282  0.179E+00  0.178E+00
  -2.262  0.181E+00  0.180E+00
  -2.242  0.184E+00  0.182E+00
  -2.222  0.186E+00  0.185E+00
  -2.202  0.189E+00  0.187E+00
  -2.182  0.191E+00  0.190E+00
  -2.162  0.194E+00  0.192E+00
  -2.142  0.196E+00  0.195E+00
  -2.122  0.199E+00  0.197E+00
  -2.102  0.201E+00  0.200E+00
  -2.082  0.204E+00  0.202E+00
  -2.062  0.206E+00  0.205E+00
  -2.042  0.209E+00  0.207E+00
  -2.022  0.211E+00  0.210E+00
  -2.002  0.214E+00  0.212E+00
  -1.982  0.216E+00  0.215E+00
  -1.962  0.219E+00  0.217E+00
  -1.942  0.221E+00  0.219E+00
  -1.922  0.223E+00  0.221E+00
  -1.902  0.225E+00  0.223E+00
  -1.882  0.227E+00  0.225E+00
  -1.862  0.229E+00  0.227E+00
  -1.842  0.231E+00  0.229E+00
  -1.822  0.233E+00  0.231E+00
  -1.802  0.234E+00  0.232E+00
  -1.782  0.236E+00  0.234E+00
  -1.762  0.237E+00  0.235E+00
  -1.742  0.238E+00  0.236E+00
  -1.722  0.240E+00  0.237E+00
  -1.702  0.241E+00  0.238E+00
  -1.682  0.242E+00  0.239E+00
  -1.662  0.243E+00  0.241E+00
  -1.642  0.244E+00  0.242E+00
  -1.622  0.245E+00  0.243E+00
  -1.602  0.246E+00  0.244E+00
  -1.582  0.248E+00  0.245E+00
  -1.562  0.249E+00  0.246E+00
  -1.542  0.250E+00  0.248E+00
  -1.522  0.252E+00  0.249E+00
  -1.502  0.254E+00  0.251E+00
  -1.482  0.256E+00  0.253E+00
  -1.462  0.258E+00  0.255E+00
  -1.442  0.260E+00  0.257E+00
  -1.422  0.262E+00  0.259E+00
  -1.402  0.265E+00  0.262E+00
  -1.382  0.268E+00  0.264E+00
  -1.362  0.270E+00  0.267E+00
  -1.342  0.273E+00  0.270E+00
  -1.322  0.276E+00  0.272E+00
  -1.302  0.279E+00  0.275E+00
  -1.282  0.282E+00  0.278E+00
  -1.262  0.285E+00  0.281E+00
  -1.242  0.287E+00  0.283E+00
  -1.222  0.290E+00  0.286E+00
  -1.202  0.293E+00  0.288E+00
  -1.182  0.295E+00  0.291E+00
  -1.162  0.297E+00  0.293E+00
  -1.142  0.299E+00  0.295E+00
  -1.122  0.301E+00  0.297E+00
  -1.102  0.303E+00  0.298E+00
  -1.082  0.304E+00  0.300E+00
  -1.062  0.306E+00  0.301E+00
  -1.042  0.307E+00  0.302E+00
  -1.022  0.307E+00  0.303E+00
  -1.002  0.308E+00  0.303E+00
  -0.982  0.309E+00  0.304E+00
  -0.962  0.309E+00  0.304E+00
  -0.942  0.309E+00  0.304E+00
  -0.922  0.309E+00  0.304E+00
  -0.902  0.309E+00  0.304E+00
  -0.882  0.309E+00  0.304E+00
  -0.862  0.309E+00  0.304E+00
  -0.842  0.310E+00  0.304E+00
  -0.822  0.310E+00  0.304E+00
  -0.802  0.310E+00  0.304E+00
  -0.782  0.310E+00  0.305E+00
  -0.762  0.311E+00  0.305E+00
  -0.742  0.311E+00  0.306E+00
  -0.722  0.312E+00  0.306E+00
  -0.702  0.313E+00  0.307E+00
  -0.682  0.314E+00  0.309E+00
  -0.662  0.316E+00  0.310E+00
  -0.642  0.318E+00  0.312E+00
  -0.622  0.320E+00  0.314E+00
  -0.602  0.322E+00  0.316E+00
  -0.582  0.325E+00  0.319E+00
  -0.562  0.328E+00  0.321E+00
  -0.542  0.331E+00  0.324E+00
  -0.522  0.334E+00  0.327E+00
  -0.502  0.338E+00  0.331E+00
  -0.482  0.341E+00  0.334E+00
  -0.462  0.345E+00  0.338E+00
  -0.442  0.349E+00  0.341E+00
  -0.422  0.353E+00  0.345E+00
  -0.402  0.357E+00  0.349E+00
  -0.382  0.360E+00  0.352E+00
  -0.362  0.364E+00  0.356E+00
  -0.342  0.368E+00  0.359E+00
  -0.322  0.371E+00  0.362E+00
  -0.302  0.374E+00  0.365E+00
  -0.282  0.377E+00  0.368E+00
  -0.262  0.380E+00  0.371E+00
  -0.242  0.383E+00  0.373E+00
  -0.222  0.385E+00  0.375E+00
  -0.202  0.387E+00  0.377E+00
  -0.182  0.388E+00  0.378E+00
  -0.162  0.390E+00  0.379E+00
  -0.142  0.391E+00  0.380E+00
  -0.122  0.392E+00  0.381E+00
  -0.102  0.393E+00  0.381E+00
  -0.082  0.393E+00  0.381E+00
  -0.062  0.394E+00  0.381E+00
  -0.042  0.394E+00  0.381E+00
  -0.022  0.394E+00  0.381E+00
  -0.002  0.394E+00  0.381E+00
   0.018  0.394E+00  0.381E+00
   0.038  0.394E+00  0.381E+00
   0.058  0.395E+00  0.381E+00
   0.078  0.395E+00  0.380E+00
   0.098  0.395E+00  0.380E+00
   0.118  0.396E+00  0.380E+00
   0.138  0.397E+00  0.381E+00
   0.158  0.398E+00  0.381E+00
   0.178  0.399E+00  0.382E+00
   0.198  0.400E+00  0.382E+00
   0.218  0.401E+00  0.383E+00
   0.238  0.403E+00  0.384E+00
   0.258  0.405E+00  0.386E+00
   0.278  0.407E+00  0.387E+00
   0.298  0.410E+00  0.389E+00
   0.318  0.413E+00  0.391E+00
   0.338  0.416E+00  0.393E+00
   0.358  0.419E+00  0.396E+00
   0.378  0.423E+00  0.399E+00
   0.398  0.427E+00  0.402E+00
   0.418  0.432E+00  0.405E+00
   0.438  0.436E+00  0.409E+00
   0.458  0.441E+00  0.413E+00
   0.478  0.447E+00  0.418E+00
   0.498  0.453E+00  0.422E+00
   0.518  0.458E+00  0.427E+00
   0.538  0.465E+00  0.432E+00
   0.558  0.471E+00  0.438E+00
   0.578  0.478E+00  0.443E+00
   0.598  0.484E+00  0.448E+00
   0.618  0.491E+00  0.454E+00
   0.638  0.497E+00  0.460E+00
   0.658  0.504E+00  0.465E+00
   0.678  0.510E+00  0.470E+00
   0.698  0.516E+00  0.476E+00
   0.718  0.522E+00  0.480E+00
   0.738  0.528E+00  0.485E+00
   0.758  0.532E+00  0.489E+00
   0.778  0.537E+00  0.493E+00
   0.798  0.540E+00  0.496E+00
   0.818  0.543E+00  0.498E+00
   0.838  0.546E+00  0.500E+00
   0.858  0.547E+00  0.501E+00
   0.878  0.548E+00  0.502E+00
   0.898  0.548E+00  0.501E+00
   0.918  0.547E+00  0.500E+00
   0.938  0.545E+00  0.499E+00
   0.958  0.543E+00  0.496E+00
   0.978  0.540E+00  0.493E+00
   0.998  0.536E+00  0.490E+00
   1.018  0.532E+00  0.486E+00
   1.038  0.527E+00  0.481E+00
   1.058  0.522E+00  0.477E+00
   1.078  0.516E+00  0.471E+00
   1.098  0.510E+00  0.466E+00
   1.118  0.504E+00  0.460E+00
   1.138  0.498E+00  0.455E+00
   1.158  0.492E+00  0.449E+00
   1.178  0.486E+00  0.444E+00
   1.198  0.480E+00  0.438E+00
   1.218  0.474E+00  0.433E+00
   1.238  0.469E+00  0.428E+00
   1.258  0.463E+00  0.424E+00
   1.278  0.459E+00  0.420E+00
   1.298  0.454E+00  0.416E+00
   1.318  0.451E+00  0.412E+00
   1.338  0.447E+00  0.409E+00
   1.358  0.444E+00  0.406E+00
   1.378  0.441E+00  0.403E+00
   1.398  0.439E+00  0.401E+00
   1.418  0.437E+00  0.399E+00
   1.438  0.435E+00  0.397E+00
   1.458  0.434E+00  0.396E+00
   1.478  0.432E+00  0.394E+00
   1.498  0.431E+00  0.393E+00
   1.518  0.430E+00  0.392E+00
   1.538  0.429E+00  0.390E+00
   1.558  0.428E+00  0.389E+00
   1.578  0.427E+00  0.388E+00
   1.598  0.426E+00  0.386E+00
   1.618  0.425E+00  0.385E+00
   1.638  0.424E+00  0.383E+00
   1.658  0.422E+00  0.381E+00
   1.678  0.420E+00  0.379E+00
   1.698  0.418E+00  0.376E+00
   1.718  0.416E+00  0.373E+00
   1.738  0.413E+00  0.370E+00
   1.758  0.410E+00  0.367E+00
   1.778  0.406E+00  0.363E+00
   1.798  0.403E+00  0.359E+00
   1.818  0.399E+00  0.355E+00
   1.838  0.394E+00  0.350E+00
   1.858  0.390E+00  0.345E+00
   1.878  0.384E+00  0.340E+00
   1.898  0.379E+00  0.334E+00
   1.918  0.373E+00  0.328E+00
   1.938  0.367E+00  0.322E+00
   1.958  0.361E+00  0.316E+00
   1.978  0.355E+00  0.310E+00
   1.998  0.349E+00  0.303E+00
   2.018  0.342E+00  0.297E+00
   2.038  0.335E+00  0.290E+00
   2.058  0.329E+00  0.283E+00
   2.078  0.322E+00  0.277E+00
   2.098  0.315E+00  0.270E+00
   2.118  0.309E+00  0.263E+00
   2.138  0.302E+00  0.257E+00
   2.158  0.296E+00  0.250E+00
   2.178  0.290E+00  0.244E+00
   2.198  0.284E+00  0.238E+00
   2.218  0.278E+00  0.232E+00
   2.238  0.273E+00  0.227E+00
   2.258  0.267E+00  0.222E+00
   2.278  0.262E+00  0.217E+00
   2.298  0.258E+00  0.212E+00
   2.318  0.253E+00  0.207E+00
   2.338  0.249E+00  0.203E+00
   2.358  0.245E+00  0.199E+00
   2.378  0.242E+00  0.195E+00
   2.398  0.238E+00  0.191E+00
   2.418  0.235E+00  0.188E+00
   2.438  0.232E+00  0.185E+00
   2.458  0.229E+00  0.182E+00
   2.478  0.227E+00  0.179E+00
   2.498  0.224E+00  0.176E+00
   2.518  0.221E+00  0.173E+00
   2.538  0.219E+00  0.170E+00
   2.558  0.216E+00  0.167E+00
   2.578  0.214E+00  0.164E+00
   2.598  0.211E+00  0.161E+00
   2.618  0.209E+00  0.158E+00
   2.638  0.206E+00  0.155E+00
   2.658  0.203E+00  0.152E+00
   2.678  0.200E+00  0.149E+00
   2.698  0.197E+00  0.146E+00
   2.718  0.195E+00  0.142E+00
   2.738  0.192E+00  0.139E+00
   2.758  0.188E+00  0.135E+00
   2.778  0.185E+00  0.131E+00
   2.798  0.182E+00  0.128E+00
   2.818  0.179E+00  0.124E+00
   2.838  0.176E+00  0.120E+00
   2.858  0.173E+00  0.117E+00
   2.878  0.170E+00  0.113E+00
   2.898  0.167E+00  0.109E+00
   2.918  0.164E+00  0.106E+00
   2.938  0.162E+00  0.102E+00
   2.958  0.159E+00  0.988E-01
   2.978  0.156E+00  0.956E-01
   2.998  0.154E+00  0.925E-01
   3.018  0.152E+00  0.897E-01
   3.038  0.150E+00  0.871E-01
   3.058  0.149E+00  0.847E-01
   3.078  0.147E+00  0.826E-01
   3.098  0.146E+00  0.807E-01
   3.118  0.145E+00  0.792E-01
   3.138  0.145E+00  0.780E-01
   3.158  0.145E+00  0.771E-01
   3.178  0.145E+00  0.766E-01
   3.198  0.146E+00  0.765E-01
   3.218  0.147E+00  0.768E-01
   3.238  0.148E+00  0.775E-01
   3.258  0.150E+00  0.786E-01
   3.278  0.153E+00  0.802E-01
   3.298  0.156E+00  0.822E-01
   3.318  0.159E+00  0.847E-01
   3.338  0.163E+00  0.877E-01
   3.358  0.168E+00  0.911E-01
   3.378  0.173E+00  0.951E-01
   3.398  0.179E+00  0.996E-01
   3.418  0.185E+00  0.105E+00
   3.438  0.192E+00  0.110E+00
   3.458  0.200E+00  0.116E+00
   3.478  0.208E+00  0.123E+00
   3.498  0.217E+00  0.130E+00
   3.518  0.226E+00  0.137E+00
   3.538  0.236E+00  0.146E+00
   3.558  0.247E+00  0.154E+00
   3.578  0.258E+00  0.163E+00
   3.598  0.269E+00  0.173E+00
   3.618  0.281E+00  0.183E+00
   3.638  0.294E+00  0.193E+00
   3.658  0.307E+00  0.204E+00
   3.678  0.320E+00  0.215E+00
   3.698  0.334E+00  0.227E+00
   3.718  0.348E+00  0.239E+00
   3.738  0.362E+00  0.251E+00
   3.758  0.377E+00  0.263E+00
   3.778  0.392E+00  0.276E+00
   3.798  0.407E+00  0.289E+00
   3.818  0.422E+00  0.302E+00
   3.838  0.437E+00  0.315E+00
   3.858  0.453E+00  0.328E+00
   3.878  0.468E+00  0.341E+00
   3.898  0.483E+00  0.353E+00
   3.918  0.498E+00  0.366E+00
   3.938  0.513E+00  0.378E+00
   3.958  0.527E+00  0.390E+00
   3.978  0.541E+00  0.402E+00
   3.998  0.555E+00  0.413E+00
   4.018  0.568E+00  0.423E+00
   4.038  0.580E+00  0.433E+00
   4.058  0.591E+00  0.442E+00
   4.078  0.601E+00  0.450E+00
   4.098  0.610E+00  0.457E+00
   4.118  0.619E+00  0.464E+00
   4.138  0.626E+00  0.469E+00
   4.158  0.632E+00  0.474E+00
   4.178  0.636E+00  0.477E+00
   4.198  0.639E+00  0.480E+00
   4.218  0.641E+00  0.481E+00
   4.238  0.642E+00  0.481E+00
   4.258  0.641E+00  0.480E+00
   4.278  0.639E+00  0.478E+00
   4.298  0.635E+00  0.475E+00
   4.318  0.631E+00  0.471E+00
   4.338  0.625E+00  0.467E+00
   4.358  0.618E+00  0.462E+00
   4.378  0.611E+00  0.456E+00
   4.398  0.603E+00  0.449E+00
   4.418  0.594E+00  0.442E+00
   4.438  0.585E+00  0.435E+00
   4.458  0.575E+00  0.428E+00
   4.478  0.566E+00  0.420E+00
   4.498  0.556E+00  0.413E+00
   4.518  0.547E+00  0.406E+00
   4.538  0.538E+00  0.399E+00
   4.558  0.530E+00  0.392E+00
   4.578  0.522E+00  0.386E+00
   4.598  0.514E+00  0.381E+00
   4.618  0.508E+00  0.376E+00
   4.638  0.502E+00  0.371E+00
   4.658  0.497E+00  0.367E+00
   4.678  0.493E+00  0.364E+00
   4.698  0.490E+00  0.362E+00
   4.718  0.487E+00  0.360E+00
   4.738  0.485E+00  0.359E+00
   4.758  0.484E+00  0.358E+00
   4.778  0.484E+00  0.358E+00
   4.798  0.484E+00  0.358E+00
   4.818  0.484E+00  0.358E+00
   4.838  0.485E+00  0.359E+00
   4.858  0.486E+00  0.359E+00
   4.878  0.487E+00  0.360E+00
   4.898  0.488E+00  0.361E+00
   4.918  0.489E+00  0.361E+00
   4.938  0.489E+00  0.362E+00
   4.958  0.489E+00  0.362E+00
   4.978  0.489E+00  0.362E+00
   4.998  0.488E+00  0.361E+00
   5.018  0.487E+00  0.360E+00
   5.038  0.485E+00  0.359E+00
   5.058  0.482E+00  0.357E+00
   5.078  0.479E+00  0.355E+00
   5.098  0.475E+00  0.352E+00
   5.118  0.471E+00  0.349E+00
   5.138  0.466E+00  0.345E+00
   5.158  0.461E+00  0.341E+00
   5.178  0.455E+00  0.337E+00
   5.198  0.449E+00  0.333E+00
   5.218  0.443E+00  0.328E+00
   5.238  0.437E+00  0.324E+00
   5.258  0.430E+00  0.319E+00
   5.278  0.424E+00  0.315E+00
   5.298  0.418E+00  0.311E+00
   5.318  0.413E+00  0.307E+00
   5.338  0.408E+00  0.303E+00
   5.358  0.403E+00  0.300E+00
   5.378  0.399E+00  0.297E+00
   5.398  0.396E+00  0.295E+00
   5.418  0.394E+00  0.294E+00
   5.438  0.392E+00  0.293E+00
   5.458  0.392E+00  0.293E+00
   5.478  0.392E+00  0.293E+00
   5.498  0.393E+00  0.294E+00
   5.518  0.395E+00  0.296E+00
   5.538  0.398E+00  0.298E+00
   5.558  0.402E+00  0.301E+00
   5.578  0.406E+00  0.304E+00
   5.598  0.411E+00  0.308E+00
   5.618  0.416E+00  0.312E+00
   5.638  0.422E+00  0.317E+00
   5.658  0.427E+00  0.321E+00
   5.678  0.433E+00  0.326E+00
   5.698  0.439E+00  0.330E+00
   5.718  0.445E+00  0.334E+00
   5.738  0.450E+00  0.338E+00
   5.758  0.454E+00  0.342E+00
   5.778  0.459E+00  0.345E+00
   5.798  0.462E+00  0.347E+00
   5.818  0.465E+00  0.349E+00
   5.838  0.466E+00  0.350E+00
   5.858  0.467E+00  0.351E+00
   5.878  0.467E+00  0.350E+00
   5.898  0.466E+00  0.349E+00
   5.918  0.464E+00  0.348E+00
   5.938  0.461E+00  0.345E+00
   5.958  0.457E+00  0.342E+00
   5.978  0.452E+00  0.338E+00
   5.998  0.447E+00  0.334E+00
   6.018  0.441E+00  0.329E+00
   6.038  0.434E+00  0.324E+00
   6.058  0.427E+00  0.318E+00
   6.078  0.420E+00  0.312E+00
   6.098  0.413E+00  0.307E+00
   6.118  0.406E+00  0.301E+00
   6.138  0.399E+00  0.296E+00
   6.158  0.393E+00  0.291E+00
   6.178  0.387E+00  0.286E+00
   6.198  0.382E+00  0.282E+00
   6.218  0.378E+00  0.278E+00
   6.238  0.374E+00  0.275E+00
   6.258  0.372E+00  0.273E+00
   6.278  0.371E+00  0.272E+00
   6.298  0.370E+00  0.271E+00
   6.318  0.371E+00  0.271E+00
   6.338  0.373E+00  0.273E+00
   6.358  0.376E+00  0.275E+00
   6.378  0.380E+00  0.278E+00
   6.398  0.385E+00  0.281E+00
   6.418  0.392E+00  0.286E+00
   6.438  0.399E+00  0.291E+00
   6.458  0.408E+00  0.297E+00
   6.478  0.417E+00  0.304E+00
   6.498  0.427E+00  0.311E+00
   6.518  0.437E+00  0.319E+00
   6.538  0.449E+00  0.327E+00
   6.558  0.460E+00  0.336E+00
   6.578  0.473E+00  0.345E+00
   6.598  0.485E+00  0.354E+00
   6.618  0.498E+00  0.363E+00
   6.638  0.511E+00  0.372E+00
   6.658  0.523E+00  0.381E+00
   6.678  0.536E+00  0.390E+00
   6.698  0.549E+00  0.399E+00
   6.718  0.561E+00  0.408E+00
   6.738  0.573E+00  0.416E+00
   6.758  0.585E+00  0.424E+00
   6.778  0.597E+00  0.432E+00
   6.798  0.607E+00  0.439E+00
   6.818  0.618E+00  0.446E+00
   6.838  0.628E+00  0.452E+00
   6.858  0.637E+00  0.458E+00
   6.878  0.645E+00  0.464E+00
   6.898  0.653E+00  0.469E+00
   6.918  0.660E+00  0.473E+00
   6.938  0.666E+00  0.477E+00
   6.958  0.672E+00  0.480E+00
   6.978  0.677E+00  0.482E+00
   6.998  0.681E+00  0.484E+00
   7.018  0.684E+00  0.486E+00
   7.038  0.686E+00  0.487E+00
   7.058  0.687E+00  0.487E+00
   7.078  0.688E+00  0.487E+00
   7.098  0.688E+00  0.486E+00
   7.118  0.687E+00  0.484E+00
   7.138  0.685E+00  0.482E+00
   7.158  0.683E+00  0.480E+00
   7.178  0.679E+00  0.477E+00
   7.198  0.676E+00  0.473E+00
   7.218  0.671E+00  0.469E+00
   7.238  0.666E+00  0.465E+00
   7.258  0.660E+00  0.460E+00
   7.278  0.654E+00  0.455E+00
   7.298  0.647E+00  0.450E+00
   7.318  0.640E+00  0.444E+00
   7.338  0.632E+00  0.438E+00
   7.358  0.624E+00  0.431E+00
   7.378  0.616E+00  0.425E+00
   7.398  0.608E+00  0.418E+00
   7.418  0.600E+00  0.411E+00
   7.438  0.592E+00  0.404E+00
   7.458  0.583E+00  0.398E+00
   7.478  0.575E+00  0.391E+00
   7.498  0.567E+00  0.384E+00
   7.518  0.560E+00  0.377E+00
   7.538  0.552E+00  0.370E+00
   7.558  0.546E+00  0.364E+00
   7.578  0.539E+00  0.358E+00
   7.598  0.533E+00  0.351E+00
   7.618  0.528E+00  0.346E+00
   7.638  0.523E+00  0.340E+00
   7.658  0.519E+00  0.335E+00
   7.678  0.515E+00  0.331E+00
   7.698  0.512E+00  0.326E+00
   7.718  0.510E+00  0.322E+00
   7.738  0.509E+00  0.319E+00
   7.758  0.508E+00  0.316E+00
   7.778  0.508E+00  0.313E+00
   7.798  0.509E+00  0.311E+00
   7.818  0.511E+00  0.310E+00
   7.838  0.513E+00  0.309E+00
   7.858  0.516E+00  0.308E+00
   7.878  0.520E+00  0.308E+00
   7.898  0.525E+00  0.308E+00
   7.918  0.530E+00  0.309E+00
   7.938  0.535E+00  0.310E+00
   7.958  0.541E+00  0.311E+00
   7.978  0.548E+00  0.313E+00
   7.998  0.555E+00  0.315E+00
   8.018  0.562E+00  0.317E+00
   8.038  0.569E+00  0.319E+00
   8.058  0.576E+00  0.322E+00
   8.078  0.583E+00  0.324E+00
   8.098  0.591E+00  0.327E+00
   8.118  0.597E+00  0.329E+00
   8.138  0.604E+00  0.332E+00
   8.158  0.610E+00  0.334E+00
   8.178  0.615E+00  0.336E+00
   8.198  0.620E+00  0.338E+00
   8.218  0.624E+00  0.340E+00
   8.238  0.628E+00  0.341E+00
   8.258  0.630E+00  0.341E+00
   8.278  0.632E+00  0.342E+00
   8.298  0.632E+00  0.342E+00
   8.318  0.632E+00  0.341E+00
   8.338  0.630E+00  0.340E+00
   8.358  0.628E+00  0.338E+00
   8.378  0.624E+00  0.336E+00
   8.398  0.619E+00  0.333E+00
   8.418  0.614E+00  0.330E+00
   8.438  0.607E+00  0.326E+00
   8.458  0.599E+00  0.322E+00
   8.478  0.590E+00  0.317E+00
   8.498  0.580E+00  0.312E+00
   8.518  0.570E+00  0.306E+00
   8.538  0.559E+00  0.300E+00
   8.558  0.547E+00  0.294E+00
   8.578  0.534E+00  0.287E+00
   8.598  0.522E+00  0.280E+00
   8.618  0.509E+00  0.273E+00
   8.638  0.496E+00  0.266E+00
   8.658  0.483E+00  0.259E+00
   8.678  0.470E+00  0.253E+00
   8.698  0.457E+00  0.246E+00
   8.718  0.445E+00  0.240E+00
   8.738  0.434E+00  0.234E+00
   8.758  0.423E+00  0.228E+00
   8.778  0.414E+00  0.223E+00
   8.798  0.406E+00  0.219E+00
   8.818  0.398E+00  0.215E+00
   8.838  0.393E+00  0.212E+00
   8.858  0.388E+00  0.210E+00
   8.878  0.385E+00  0.209E+00
   8.898  0.384E+00  0.208E+00
   8.918  0.384E+00  0.209E+00
   8.938  0.386E+00  0.210E+00
   8.958  0.390E+00  0.212E+00
   8.978  0.395E+00  0.215E+00
   8.998  0.402E+00  0.219E+00
   9.018  0.410E+00  0.223E+00
   9.038  0.420E+00  0.229E+00
   9.058  0.431E+00  0.235E+00
   9.078  0.444E+00  0.242E+00
   9.098  0.457E+00  0.249E+00
   9.118  0.471E+00  0.257E+00
   9.138  0.486E+00  0.265E+00
   9.158  0.502E+00  0.273E+00
   9.178  0.518E+00  0.282E+00
   9.198  0.535E+00  0.291E+00
   9.218  0.551E+00  0.300E+00
   9.238  0.567E+00  0.309E+00
   9.258  0.584E+00  0.318E+00
   9.278  0.599E+00  0.327E+00
   9.298  0.615E+00  0.335E+00
   9.318  0.629E+00  0.344E+00
   9.338  0.643E+00  0.351E+00
   9.358  0.656E+00  0.359E+00
   9.378  0.667E+00  0.366E+00
   9.398  0.678E+00  0.372E+00
   9.418  0.688E+00  0.378E+00
   9.438  0.696E+00  0.383E+00
   9.458  0.703E+00  0.387E+00
   9.478  0.708E+00  0.391E+00
   9.498  0.713E+00  0.395E+00
   9.518  0.716E+00  0.397E+00
   9.538  0.717E+00  0.399E+00
   9.558  0.718E+00  0.401E+00
   9.578  0.717E+00  0.401E+00
   9.598  0.715E+00  0.402E+00
   9.618  0.712E+00  0.401E+00
   9.638  0.708E+00  0.400E+00
   9.658  0.703E+00  0.399E+00
   9.678  0.698E+00  0.397E+00
   9.698  0.691E+00  0.395E+00
   9.718  0.684E+00  0.392E+00
   9.738  0.676E+00  0.389E+00
   9.758  0.668E+00  0.386E+00
   9.778  0.659E+00  0.382E+00
   9.798  0.651E+00  0.379E+00
   9.818  0.642E+00  0.375E+00
   9.838  0.632E+00  0.371E+00
   9.858  0.623E+00  0.367E+00
   9.878  0.614E+00  0.363E+00
   9.898  0.605E+00  0.358E+00
   9.918  0.596E+00  0.355E+00
   9.938  0.587E+00  0.351E+00
   9.958  0.579E+00  0.347E+00
   9.978  0.571E+00  0.343E+00
   9.998  0.564E+00  0.340E+00
  10.018  0.557E+00  0.337E+00
  10.038  0.551E+00  0.334E+00
  10.058  0.545E+00  0.332E+00
  10.078  0.540E+00  0.330E+00
  10.098  0.535E+00  0.329E+00
  10.118  0.532E+00  0.327E+00
  10.138  0.529E+00  0.327E+00
  10.158  0.527E+00  0.326E+00
  10.178  0.525E+00  0.327E+00
  10.198  0.525E+00  0.327E+00
  10.218  0.525E+00  0.329E+00
  10.238  0.527E+00  0.331E+00
  10.258  0.529E+00  0.333E+00
  10.278  0.532E+00  0.336E+00
  10.298  0.536E+00  0.339E+00
  10.318  0.541E+00  0.343E+00
  10.338  0.546E+00  0.347E+00
  10.358  0.553E+00  0.352E+00
  10.378  0.560E+00  0.357E+00
  10.398  0.568E+00  0.363E+00
  10.418  0.577E+00  0.369E+00
  10.438  0.586E+00  0.375E+00
  10.458  0.595E+00  0.382E+00
  10.478  0.606E+00  0.389E+00
  10.498  0.616E+00  0.396E+00
  10.518  0.627E+00  0.403E+00
  10.538  0.638E+00  0.410E+00
  10.558  0.649E+00  0.418E+00
  10.578  0.660E+00  0.425E+00
  10.598  0.670E+00  0.432E+00
  10.618  0.681E+00  0.439E+00
  10.638  0.691E+00  0.446E+00
  10.658  0.701E+00  0.452E+00
  10.678  0.711E+00  0.459E+00
  10.698  0.719E+00  0.464E+00
  10.718  0.727E+00  0.470E+00
  10.738  0.735E+00  0.475E+00
  10.758  0.742E+00  0.479E+00
  10.778  0.747E+00  0.483E+00
  10.798  0.752E+00  0.487E+00
  10.818  0.757E+00  0.490E+00
  10.838  0.760E+00  0.492E+00
  10.858  0.762E+00  0.494E+00
  10.878  0.763E+00  0.495E+00
  10.898  0.764E+00  0.496E+00
  10.918  0.763E+00  0.496E+00
  10.938  0.762E+00  0.495E+00
  10.958  0.760E+00  0.494E+00
  10.978  0.757E+00  0.492E+00
  10.998  0.753E+00  0.490E+00
  11.018  0.748E+00  0.487E+00
  11.038  0.743E+00  0.484E+00
  11.058  0.737E+00  0.480E+00
  11.078  0.730E+00  0.476E+00
  11.098  0.722E+00  0.472E+00
  11.118  0.714E+00  0.467E+00
  11.138  0.705E+00  0.462E+00
  11.158  0.696E+00  0.456E+00
  11.178  0.687E+00  0.450E+00
  11.198  0.676E+00  0.444E+00
  11.218  0.666E+00  0.438E+00
  11.238  0.655E+00  0.431E+00
  11.258  0.644E+00  0.425E+00
  11.278  0.633E+00  0.418E+00
  11.298  0.622E+00  0.412E+00
  11.318  0.610E+00  0.405E+00
  11.338  0.599E+00  0.398E+00
  11.358  0.588E+00  0.392E+00
  11.378  0.576E+00  0.386E+00
  11.398  0.565E+00  0.380E+00
  11.418  0.555E+00  0.374E+00
  11.438  0.545E+00  0.368E+00
  11.458  0.535E+00  0.363E+00
  11.478  0.525E+00  0.358E+00
  11.498  0.517E+00  0.353E+00
  11.518  0.509E+00  0.349E+00
  11.538  0.502E+00  0.346E+00
  11.558  0.495E+00  0.343E+00
  11.578  0.490E+00  0.341E+00
  11.598  0.486E+00  0.339E+00
  11.618  0.482E+00  0.338E+00
  11.638  0.480E+00  0.338E+00
  11.658  0.479E+00  0.338E+00
  11.678  0.480E+00  0.339E+00
  11.698  0.482E+00  0.341E+00
  11.718  0.485E+00  0.344E+00
  11.738  0.490E+00  0.348E+00
  11.758  0.496E+00  0.353E+00
  11.778  0.503E+00  0.358E+00
  11.798  0.513E+00  0.365E+00
  11.818  0.523E+00  0.372E+00
  11.838  0.535E+00  0.380E+00
  11.858  0.548E+00  0.389E+00
  11.878  0.563E+00  0.399E+00
  11.898  0.579E+00  0.409E+00
  11.918  0.596E+00  0.420E+00
  11.938  0.614E+00  0.432E+00
  11.958  0.634E+00  0.444E+00
  11.978  0.653E+00  0.457E+00
  11.998  0.674E+00  0.470E+00
  12.018  0.695E+00  0.483E+00
  12.038  0.716E+00  0.497E+00
  12.058  0.737E+00  0.510E+00
  12.078  0.759E+00  0.524E+00
  12.098  0.780E+00  0.537E+00
  12.118  0.800E+00  0.550E+00
  12.138  0.820E+00  0.563E+00
  12.158  0.839E+00  0.575E+00
  12.178  0.857E+00  0.586E+00
  12.198  0.874E+00  0.597E+00
  12.218  0.890E+00  0.607E+00
  12.238  0.905E+00  0.616E+00
  12.258  0.918E+00  0.624E+00
  12.278  0.929E+00  0.632E+00
  12.298  0.939E+00  0.638E+00
  12.318  0.948E+00  0.643E+00
  12.338  0.954E+00  0.647E+00
  12.358  0.960E+00  0.651E+00
  12.378  0.963E+00  0.653E+00
  12.398  0.965E+00  0.655E+00
  12.418  0.966E+00  0.655E+00
  12.438  0.966E+00  0.655E+00
  12.458  0.964E+00  0.653E+00
  12.478  0.961E+00  0.652E+00
  12.498  0.956E+00  0.649E+00
  12.518  0.951E+00  0.646E+00
  12.538  0.945E+00  0.642E+00
  12.558  0.939E+00  0.638E+00
  12.578  0.931E+00  0.633E+00
  12.598  0.924E+00  0.628E+00
  12.618  0.915E+00  0.622E+00
  12.638  0.907E+00  0.617E+00
  12.658  0.898E+00  0.611E+00
  12.678  0.889E+00  0.605E+00
  12.698  0.880E+00  0.599E+00
  12.718  0.871E+00  0.593E+00
  12.738  0.862E+00  0.587E+00
  12.758  0.853E+00  0.581E+00
  12.778  0.844E+00  0.575E+00
  12.798  0.836E+00  0.570E+00
  12.818  0.828E+00  0.564E+00
  12.838  0.820E+00  0.559E+00
  12.858  0.813E+00  0.554E+00
  12.878  0.806E+00  0.549E+00
  12.898  0.800E+00  0.544E+00
  12.918  0.795E+00  0.540E+00
  12.938  0.789E+00  0.537E+00
  12.958  0.785E+00  0.533E+00
  12.978  0.781E+00  0.530E+00
  12.998  0.778E+00  0.528E+00
  13.018  0.775E+00  0.526E+00
  13.038  0.773E+00  0.524E+00
  13.058  0.771E+00  0.523E+00
  13.078  0.770E+00  0.522E+00
  13.098  0.769E+00  0.522E+00
  13.118  0.769E+00  0.521E+00
  13.138  0.769E+00  0.521E+00
  13.158  0.769E+00  0.522E+00
  13.178  0.769E+00  0.522E+00
  13.198  0.770E+00  0.523E+00
  13.218  0.770E+00  0.523E+00
  13.238  0.770E+00  0.524E+00
  13.258  0.770E+00  0.524E+00
  13.278  0.770E+00  0.524E+00
  13.298  0.769E+00  0.524E+00
  13.318  0.767E+00  0.524E+00
  13.338  0.765E+00  0.523E+00
  13.358  0.763E+00  0.522E+00
  13.378  0.760E+00  0.521E+00
  13.398  0.756E+00  0.519E+00
  13.418  0.751E+00  0.516E+00
  13.438  0.745E+00  0.513E+00
  13.458  0.739E+00  0.510E+00
  13.478  0.732E+00  0.506E+00
  13.498  0.724E+00  0.501E+00
  13.518  0.716E+00  0.496E+00
  13.538  0.707E+00  0.491E+00
  13.558  0.697E+00  0.485E+00
  13.578  0.687E+00  0.479E+00
  13.598  0.677E+00  0.473E+00
  13.618  0.666E+00  0.466E+00
  13.638  0.655E+00  0.460E+00
  13.658  0.644E+00  0.453E+00
  13.678  0.632E+00  0.445E+00
  13.698  0.621E+00  0.438E+00
  13.718  0.609E+00  0.431E+00
  13.738  0.597E+00  0.424E+00
  13.758  0.586E+00  0.416E+00
  13.778  0.574E+00  0.409E+00
  13.798  0.563E+00  0.402E+00
  13.818  0.552E+00  0.395E+00
  13.838  0.541E+00  0.388E+00
  13.858  0.530E+00  0.381E+00
  13.878  0.519E+00  0.374E+00
  13.898  0.508E+00  0.367E+00
  13.918  0.498E+00  0.360E+00
  13.938  0.488E+00  0.354E+00
  13.958  0.478E+00  0.347E+00
  13.978  0.468E+00  0.341E+00
  13.998  0.458E+00  0.334E+00
  14.018  0.449E+00  0.328E+00
  14.038  0.439E+00  0.322E+00
  14.058  0.430E+00  0.316E+00
  14.078  0.421E+00  0.310E+00
  14.098  0.413E+00  0.304E+00
  14.118  0.404E+00  0.299E+00
  14.138  0.396E+00  0.293E+00
  14.158  0.388E+00  0.288E+00
  14.178  0.380E+00  0.283E+00
  14.198  0.373E+00  0.279E+00
  14.218  0.366E+00  0.274E+00
  14.238  0.360E+00  0.270E+00
  14.258  0.354E+00  0.266E+00
  14.278  0.348E+00  0.262E+00
  14.298  0.343E+00  0.259E+00
  14.318  0.339E+00  0.256E+00
  14.338  0.335E+00  0.254E+00
  14.358  0.331E+00  0.252E+00
  14.378  0.328E+00  0.250E+00
  14.398  0.326E+00  0.249E+00
  14.418  0.324E+00  0.249E+00
  14.438  0.323E+00  0.248E+00
  14.458  0.323E+00  0.248E+00
  14.478  0.322E+00  0.249E+00
  14.498  0.323E+00  0.250E+00
  14.518  0.323E+00  0.251E+00
  14.538  0.324E+00  0.252E+00
  14.558  0.326E+00  0.254E+00
  14.578  0.328E+00  0.256E+00
  14.598  0.329E+00  0.258E+00
  14.618  0.332E+00  0.260E+00
  14.638  0.334E+00  0.262E+00
  14.658  0.336E+00  0.264E+00
  14.678  0.338E+00  0.266E+00
  14.698  0.341E+00  0.269E+00
  14.718  0.343E+00  0.271E+00
  14.738  0.345E+00  0.273E+00
  14.758  0.347E+00  0.275E+00
  14.778  0.348E+00  0.276E+00
  14.798  0.350E+00  0.278E+00
  14.818  0.352E+00  0.279E+00
  14.838  0.353E+00  0.280E+00
  14.858  0.354E+00  0.281E+00
  14.878  0.355E+00  0.282E+00
  14.898  0.355E+00  0.283E+00
  14.918  0.356E+00  0.283E+00
  14.938  0.357E+00  0.284E+00
  14.958  0.357E+00  0.284E+00
  14.978  0.357E+00  0.284E+00
  14.998  0.357E+00  0.284E+00
  15.018  0.358E+00  0.284E+00
  15.038  0.358E+00  0.284E+00
  15.058  0.358E+00  0.284E+00
  15.078  0.358E+00  0.283E+00
  15.098  0.357E+00  0.283E+00
  15.118  0.357E+00  0.282E+00
  15.138  0.357E+00  0.281E+00
  15.158  0.357E+00  0.281E+00
  15.178  0.356E+00  0.280E+00
  15.198  0.355E+00  0.279E+00
  15.218  0.354E+00  0.277E+00
  15.238  0.353E+00  0.276E+00
  15.258  0.352E+00  0.275E+00
  15.278  0.351E+00  0.273E+00
  15.298  0.349E+00  0.271E+00
  15.318  0.347E+00  0.269E+00
  15.338  0.345E+00  0.267E+00
  15.358  0.342E+00  0.264E+00
  15.378  0.339E+00  0.262E+00
  15.398  0.336E+00  0.259E+00
  15.418  0.333E+00  0.256E+00
  15.438  0.330E+00  0.253E+00
  15.458  0.326E+00  0.250E+00
  15.478  0.322E+00  0.247E+00
  15.498  0.319E+00  0.244E+00
  15.518  0.315E+00  0.241E+00
  15.538  0.311E+00  0.238E+00
  15.558  0.308E+00  0.235E+00
  15.578  0.305E+00  0.233E+00
  15.598  0.302E+00  0.230E+00
  15.618  0.299E+00  0.228E+00
  15.638  0.297E+00  0.227E+00
  15.658  0.295E+00  0.225E+00
  15.678  0.293E+00  0.224E+00
  15.698  0.292E+00  0.224E+00
  15.718  0.292E+00  0.223E+00
  15.738  0.292E+00  0.224E+00
  15.758  0.292E+00  0.224E+00
  15.778  0.293E+00  0.225E+00
  15.798  0.295E+00  0.226E+00
  15.818  0.297E+00  0.228E+00
  15.838  0.299E+00  0.230E+00
  15.858  0.302E+00  0.232E+00
  15.878  0.306E+00  0.235E+00
  15.898  0.309E+00  0.238E+00
  15.918  0.313E+00  0.241E+00
  15.938  0.318E+00  0.244E+00
  15.958  0.322E+00  0.247E+00
  15.978  0.327E+00  0.251E+00
  15.998  0.332E+00  0.254E+00
  16.018  0.337E+00  0.258E+00
  16.038  0.342E+00  0.261E+00
  16.058  0.347E+00  0.265E+00
  16.078  0.353E+00  0.268E+00
  16.098  0.358E+00  0.272E+00
  16.118  0.363E+00  0.275E+00
  16.138  0.369E+00  0.279E+00
  16.158  0.374E+00  0.282E+00
  16.178  0.379E+00  0.285E+00
  16.198  0.384E+00  0.288E+00
  16.218  0.390E+00  0.291E+00
  16.238  0.395E+00  0.294E+00
  16.258  0.400E+00  0.297E+00
  16.278  0.405E+00  0.300E+00
  16.298  0.410E+00  0.303E+00
  16.318  0.415E+00  0.305E+00
  16.338  0.420E+00  0.308E+00
  16.358  0.424E+00  0.310E+00
  16.378  0.429E+00  0.313E+00
  16.398  0.433E+00  0.315E+00
  16.418  0.437E+00  0.317E+00
  16.438  0.441E+00  0.319E+00
  16.458  0.445E+00  0.321E+00
  16.478  0.449E+00  0.323E+00
  16.498  0.452E+00  0.324E+00
  16.518  0.455E+00  0.325E+00
  16.538  0.457E+00  0.327E+00
  16.558  0.459E+00  0.327E+00
  16.578  0.461E+00  0.328E+00
  16.598  0.462E+00  0.328E+00
  16.618  0.463E+00  0.328E+00
  16.638  0.463E+00  0.328E+00
  16.658  0.463E+00  0.327E+00
  16.678  0.462E+00  0.327E+00
  16.698  0.460E+00  0.325E+00
  16.718  0.458E+00  0.324E+00
  16.738  0.455E+00  0.322E+00
  16.758  0.452E+00  0.319E+00
  16.778  0.448E+00  0.316E+00
  16.798  0.443E+00  0.313E+00
  16.818  0.438E+00  0.309E+00
  16.838  0.432E+00  0.305E+00
  16.858  0.425E+00  0.301E+00
  16.878  0.418E+00  0.296E+00
  16.898  0.411E+00  0.291E+00
  16.918  0.403E+00  0.285E+00
  16.938  0.394E+00  0.280E+00
  16.958  0.385E+00  0.273E+00
  16.978  0.376E+00  0.267E+00
  16.998  0.366E+00  0.260E+00
  17.018  0.356E+00  0.253E+00
  17.038  0.345E+00  0.246E+00
  17.058  0.335E+00  0.239E+00
  17.078  0.324E+00  0.231E+00
  17.098  0.314E+00  0.224E+00
  17.118  0.303E+00  0.216E+00
  17.138  0.293E+00  0.209E+00
  17.158  0.283E+00  0.202E+00
  17.178  0.273E+00  0.195E+00
  17.198  0.264E+00  0.188E+00
  17.218  0.255E+00  0.181E+00
  17.238  0.246E+00  0.175E+00
  17.258  0.238E+00  0.169E+00
  17.278  0.231E+00  0.164E+00
  17.298  0.225E+00  0.159E+00
  17.318  0.219E+00  0.155E+00
  17.338  0.214E+00  0.151E+00
  17.358  0.210E+00  0.148E+00
  17.378  0.207E+00  0.145E+00
  17.398  0.204E+00  0.143E+00
  17.418  0.203E+00  0.141E+00
  17.438  0.202E+00  0.140E+00
  17.458  0.203E+00  0.140E+00
  17.478  0.204E+00  0.140E+00
  17.498  0.206E+00  0.141E+00
  17.518  0.208E+00  0.143E+00
  17.538  0.212E+00  0.144E+00
  17.558  0.216E+00  0.147E+00
  17.578  0.220E+00  0.149E+00
  17.598  0.226E+00  0.152E+00
  17.618  0.231E+00  0.156E+00
  17.638  0.237E+00  0.159E+00
  17.658  0.243E+00  0.163E+00
  17.678  0.250E+00  0.167E+00
  17.698  0.256E+00  0.171E+00
  17.718  0.263E+00  0.175E+00
  17.738  0.269E+00  0.179E+00
  17.758  0.276E+00  0.183E+00
  17.778  0.282E+00  0.186E+00
  17.798  0.288E+00  0.190E+00
  17.818  0.293E+00  0.193E+00
  17.838  0.298E+00  0.196E+00
  17.858  0.303E+00  0.198E+00
  17.878  0.307E+00  0.200E+00
  17.898  0.311E+00  0.202E+00
  17.918  0.314E+00  0.204E+00
  17.938  0.316E+00  0.205E+00
  17.958  0.318E+00  0.205E+00
  17.978  0.319E+00  0.205E+00
  17.998  0.319E+00  0.205E+00
  18.018  0.318E+00  0.204E+00
  18.038  0.317E+00  0.203E+00
  18.058  0.315E+00  0.201E+00
  18.078  0.313E+00  0.199E+00
  18.098  0.309E+00  0.196E+00
  18.118  0.305E+00  0.193E+00
  18.138  0.301E+00  0.190E+00
  18.158  0.296E+00  0.186E+00
  18.178  0.290E+00  0.182E+00
  18.198  0.284E+00  0.177E+00
  18.218  0.277E+00  0.173E+00
  18.238  0.269E+00  0.168E+00
  18.258  0.261E+00  0.162E+00
  18.278  0.253E+00  0.157E+00
  18.298  0.245E+00  0.151E+00
  18.318  0.236E+00  0.145E+00
  18.338  0.227E+00  0.139E+00
  18.358  0.218E+00  0.133E+00
  18.378  0.208E+00  0.127E+00
  18.398  0.199E+00  0.121E+00
  18.418  0.189E+00  0.115E+00
  18.438  0.180E+00  0.109E+00
  18.458  0.170E+00  0.103E+00
  18.478  0.161E+00  0.972E-01
  18.498  0.152E+00  0.916E-01
  18.518  0.143E+00  0.860E-01
  18.538  0.135E+00  0.807E-01
  18.558  0.127E+00  0.757E-01
  18.578  0.119E+00  0.708E-01
  18.598  0.112E+00  0.663E-01
  18.618  0.106E+00  0.621E-01
  18.638  0.997E-01  0.582E-01
  18.658  0.944E-01  0.547E-01
  18.678  0.897E-01  0.515E-01
  18.698  0.857E-01  0.488E-01
  18.718  0.824E-01  0.464E-01
  18.738  0.798E-01  0.444E-01
  18.758  0.780E-01  0.428E-01
  18.778  0.769E-01  0.416E-01
  18.798  0.766E-01  0.408E-01
  18.818  0.770E-01  0.404E-01
  18.838  0.781E-01  0.404E-01
  18.858  0.798E-01  0.408E-01
  18.878  0.823E-01  0.415E-01
  18.898  0.854E-01  0.425E-01
  18.918  0.890E-01  0.438E-01
  18.938  0.932E-01  0.455E-01
  18.958  0.979E-01  0.473E-01
  18.978  0.103E+00  0.494E-01
  18.998  0.108E+00  0.517E-01
  19.018  0.114E+00  0.541E-01
  19.038  0.120E+00  0.566E-01
  19.058  0.126E+00  0.592E-01
  19.078  0.132E+00  0.618E-01
  19.098  0.138E+00  0.644E-01
  19.118  0.143E+00  0.669E-01
  19.138  0.149E+00  0.693E-01
  19.158  0.154E+00  0.716E-01
  19.178  0.159E+00  0.737E-01
  19.198  0.163E+00  0.756E-01
  19.218  0.167E+00  0.773E-01
  19.238  0.170E+00  0.787E-01
  19.258  0.173E+00  0.799E-01
  19.278  0.175E+00  0.807E-01
  19.298  0.176E+00  0.813E-01
  19.318  0.177E+00  0.816E-01
  19.338  0.177E+00  0.815E-01
  19.358  0.176E+00  0.812E-01
  19.378  0.175E+00  0.806E-01
  19.398  0.173E+00  0.798E-01
  19.418  0.171E+00  0.787E-01
  19.438  0.168E+00  0.773E-01
  19.458  0.165E+00  0.759E-01
  19.478  0.161E+00  0.742E-01
  19.498  0.157E+00  0.725E-01
  19.518  0.153E+00  0.706E-01
  19.538  0.149E+00  0.687E-01
  19.558  0.145E+00  0.668E-01
  19.578  0.141E+00  0.649E-01
  19.598  0.136E+00  0.631E-01
  19.618  0.132E+00  0.613E-01
  19.638  0.129E+00  0.597E-01
  19.658  0.125E+00  0.581E-01
  19.678  0.122E+00  0.567E-01
  19.698  0.119E+00  0.555E-01
  19.718  0.117E+00  0.544E-01
  19.738  0.114E+00  0.535E-01
  19.758  0.112E+00  0.527E-01
  19.778  0.111E+00  0.521E-01
  19.798  0.110E+00  0.516E-01
  19.818  0.109E+00  0.512E-01
  19.838  0.108E+00  0.510E-01
  19.858  0.108E+00  0.509E-01
  19.878  0.108E+00  0.508E-01
  19.898  0.108E+00  0.508E-01
  19.918  0.108E+00  0.509E-01
  19.938  0.108E+00  0.509E-01
  19.958  0.108E+00  0.510E-01
  19.978  0.108E+00  0.510E-01
  19.998  0.108E+00  0.510E-01
  20.018  0.108E+00  0.509E-01
  20.038  0.108E+00  0.508E-01
  20.058  0.108E+00  0.506E-01
  20.078  0.107E+00  0.502E-01
  20.098  0.107E+00  0.498E-01
  20.118  0.106E+00  0.493E-01
  20.138  0.105E+00  0.487E-01
  20.158  0.104E+00  0.480E-01
  20.178  0.103E+00  0.472E-01
  20.198  0.101E+00  0.463E-01
  20.218  0.995E-01  0.453E-01
  20.238  0.978E-01  0.443E-01
  20.258  0.959E-01  0.432E-01
  20.278  0.939E-01  0.421E-01
  20.298  0.919E-01  0.409E-01
  20.318  0.898E-01  0.397E-01
  20.338  0.877E-01  0.385E-01
  20.358  0.855E-01  0.373E-01
  20.378  0.834E-01  0.361E-01
  20.398  0.812E-01  0.350E-01
  20.418  0.791E-01  0.338E-01
  20.438  0.770E-01  0.328E-01
  20.458  0.750E-01  0.317E-01
  20.478  0.731E-01  0.308E-01
  20.498  0.712E-01  0.298E-01
  20.518  0.693E-01  0.290E-01
  20.538  0.676E-01  0.282E-01
  20.558  0.659E-01  0.275E-01
  20.578  0.644E-01  0.269E-01
  20.598  0.629E-01  0.263E-01
  20.618  0.615E-01  0.259E-01
  20.638  0.602E-01  0.255E-01
  20.658  0.590E-01  0.252E-01
  20.678  0.580E-01  0.250E-01
  20.698  0.570E-01  0.249E-01
  20.718  0.561E-01  0.248E-01
  20.738  0.553E-01  0.248E-01
  20.758  0.547E-01  0.250E-01
  20.778  0.542E-01  0.251E-01
  20.798  0.537E-01  0.254E-01
  20.818  0.534E-01  0.257E-01
  20.838  0.532E-01  0.261E-01
  20.858  0.532E-01  0.266E-01
  20.878  0.532E-01  0.271E-01
  20.898  0.533E-01  0.277E-01
  20.918  0.536E-01  0.283E-01
  20.938  0.540E-01  0.290E-01
  20.958  0.544E-01  0.297E-01
  20.978  0.550E-01  0.305E-01
  20.998  0.556E-01  0.313E-01
  21.018  0.564E-01  0.321E-01
  21.038  0.572E-01  0.329E-01
  21.058  0.581E-01  0.338E-01
  21.078  0.591E-01  0.347E-01
  21.098  0.601E-01  0.356E-01
  21.118  0.613E-01  0.366E-01
  21.138  0.625E-01  0.375E-01
  21.158  0.637E-01  0.385E-01
  21.178  0.650E-01  0.395E-01
  21.198  0.664E-01  0.405E-01
  21.218  0.678E-01  0.415E-01
  21.238  0.693E-01  0.426E-01
  21.258  0.708E-01  0.436E-01
  21.278  0.723E-01  0.446E-01
  21.298  0.739E-01  0.457E-01
  21.318  0.754E-01  0.467E-01
  21.338  0.769E-01  0.477E-01
  21.358  0.784E-01  0.487E-01
  21.378  0.799E-01  0.496E-01
  21.398  0.813E-01  0.505E-01
  21.418  0.826E-01  0.514E-01
  21.438  0.838E-01  0.522E-01
  21.458  0.849E-01  0.528E-01
  21.478  0.858E-01  0.534E-01
  21.498  0.865E-01  0.539E-01
  21.518  0.871E-01  0.542E-01
  21.538  0.874E-01  0.545E-01
  21.558  0.875E-01  0.545E-01
  21.578  0.873E-01  0.545E-01
  21.598  0.869E-01  0.542E-01
  21.618  0.863E-01  0.538E-01
  21.638  0.853E-01  0.533E-01
  21.658  0.841E-01  0.525E-01
  21.678  0.827E-01  0.517E-01
  21.698  0.810E-01  0.506E-01
  21.718  0.790E-01  0.495E-01
  21.738  0.769E-01  0.482E-01
  21.758  0.745E-01  0.468E-01
  21.778  0.720E-01  0.452E-01
  21.798  0.694E-01  0.436E-01
  21.818  0.666E-01  0.420E-01
  21.838  0.637E-01  0.402E-01
  21.858  0.608E-01  0.385E-01
  21.878  0.579E-01  0.367E-01
  21.898  0.550E-01  0.350E-01
  21.918  0.521E-01  0.333E-01
  21.938  0.492E-01  0.316E-01
  21.958  0.464E-01  0.299E-01
  21.978  0.438E-01  0.283E-01
  21.998  0.412E-01  0.268E-01
  22.018  0.387E-01  0.254E-01
  22.038  0.364E-01  0.240E-01
  22.058  0.343E-01  0.228E-01
  22.078  0.323E-01  0.216E-01
  22.098  0.304E-01  0.205E-01
  22.118  0.287E-01  0.196E-01
  22.138  0.272E-01  0.187E-01
  22.158  0.257E-01  0.179E-01
  22.178  0.244E-01  0.171E-01
  22.198  0.233E-01  0.165E-01
  22.218  0.222E-01  0.159E-01
  22.238  0.213E-01  0.153E-01
  22.258  0.204E-01  0.148E-01
  22.278  0.196E-01  0.144E-01
  22.298  0.189E-01  0.140E-01
  22.318  0.183E-01  0.137E-01
  22.338  0.177E-01  0.133E-01
  22.358  0.172E-01  0.130E-01
  22.378  0.167E-01  0.128E-01
  22.398  0.163E-01  0.125E-01
  22.418  0.159E-01  0.123E-01
  22.438  0.156E-01  0.121E-01
  22.458  0.153E-01  0.120E-01
  22.478  0.150E-01  0.118E-01
  22.498  0.148E-01  0.117E-01
  22.518  0.146E-01  0.116E-01
  22.538  0.144E-01  0.115E-01
  22.558  0.143E-01  0.115E-01
  22.578  0.142E-01  0.115E-01
  22.598  0.141E-01  0.115E-01
  22.618  0.141E-01  0.116E-01
  22.638  0.141E-01  0.116E-01
  22.658  0.142E-01  0.117E-01
  22.678  0.143E-01  0.119E-01
  22.698  0.144E-01  0.120E-01
  22.718  0.145E-01  0.122E-01
  22.738  0.147E-01  0.124E-01
  22.758  0.149E-01  0.126E-01
  22.778  0.151E-01  0.128E-01
  22.798  0.154E-01  0.130E-01
  22.818  0.156E-01  0.133E-01
  22.838  0.159E-01  0.135E-01
  22.858  0.161E-01  0.138E-01
  22.878  0.164E-01  0.140E-01
  22.898  0.166E-01  0.143E-01
  22.918  0.169E-01  0.146E-01
  22.938  0.172E-01  0.148E-01
  22.958  0.175E-01  0.151E-01
  22.978  0.177E-01  0.153E-01
  22.998  0.180E-01  0.156E-01
  23.018  0.183E-01  0.158E-01
  23.038  0.185E-01  0.161E-01
  23.058  0.188E-01  0.163E-01
  23.078  0.191E-01  0.165E-01
  23.098  0.193E-01  0.168E-01
  23.118  0.196E-01  0.170E-01
  23.138  0.198E-01  0.173E-01
  23.158  0.201E-01  0.175E-01
  23.178  0.204E-01  0.177E-01
  23.198  0.206E-01  0.180E-01
  23.218  0.209E-01  0.182E-01
  23.238  0.211E-01  0.184E-01
  23.258  0.213E-01  0.186E-01
  23.278  0.215E-01  0.188E-01
  23.298  0.217E-01  0.190E-01
  23.318  0.219E-01  0.191E-01
  23.338  0.220E-01  0.192E-01
  23.358  0.221E-01  0.193E-01
  23.378  0.221E-01  0.193E-01
  23.398  0.221E-01  0.193E-01
  23.418  0.220E-01  0.192E-01
  23.438  0.219E-01  0.191E-01
  23.458  0.217E-01  0.190E-01
  23.478  0.214E-01  0.187E-01
  23.498  0.211E-01  0.185E-01
  23.518  0.207E-01  0.181E-01
  23.538  0.203E-01  0.177E-01
  23.558  0.197E-01  0.173E-01
  23.578  0.192E-01  0.168E-01
  23.598  0.185E-01  0.162E-01
  23.618  0.179E-01  0.156E-01
  23.638  0.171E-01  0.150E-01
  23.658  0.164E-01  0.143E-01
  23.678  0.156E-01  0.136E-01
  23.698  0.147E-01  0.129E-01
  23.718  0.139E-01  0.122E-01
  23.738  0.131E-01  0.114E-01
  23.758  0.122E-01  0.107E-01
  23.778  0.114E-01  0.995E-02
  23.798  0.105E-01  0.922E-02
  23.818  0.970E-02  0.850E-02
  23.838  0.890E-02  0.780E-02
  23.858  0.814E-02  0.713E-02
  23.878  0.740E-02  0.648E-02
  23.898  0.670E-02  0.587E-02
  23.918  0.604E-02  0.529E-02
  23.938  0.541E-02  0.474E-02
  23.958  0.483E-02  0.423E-02
  23.978  0.429E-02  0.376E-02
  23.998  0.379E-02  0.332E-02
  24.018  0.334E-02  0.293E-02
  24.038  0.292E-02  0.256E-02
  24.058  0.255E-02  0.223E-02
  24.078  0.221E-02  0.194E-02
  24.098  0.191E-02  0.167E-02
  24.118  0.164E-02  0.144E-02
  24.138  0.140E-02  0.123E-02
  24.158  0.119E-02  0.105E-02
  24.178  0.101E-02  0.887E-03
  24.198  0.853E-03  0.748E-03
  24.218  0.716E-03  0.627E-03
  24.238  0.598E-03  0.524E-03
  24.258  0.497E-03  0.435E-03
  24.278  0.411E-03  0.360E-03
  24.298  0.338E-03  0.296E-03
  24.318  0.277E-03  0.243E-03
  24.338  0.226E-03  0.198E-03
  24.358  0.183E-03  0.161E-03
  24.378  0.148E-03  0.130E-03
  24.398  0.119E-03  0.104E-03
  24.418  0.951E-04  0.834E-04
  24.438  0.757E-04  0.663E-04
  24.458  0.600E-04  0.526E-04
  24.478  0.473E-04  0.414E-04
  24.498  0.371E-04  0.325E-04
  24.518  0.290E-04  0.254E-04
  24.538  0.225E-04  0.197E-04
  24.558  0.174E-04  0.153E-04
  24.578  0.134E-04  0.117E-04
  24.598  0.103E-04  0.899E-05
  24.618  0.782E-05  0.686E-05
  24.638  0.594E-05  0.520E-05
  24.658  0.448E-05  0.393E-05
  24.678  0.337E-05  0.295E-05
  24.698  0.252E-05  0.221E-05
  24.718  0.187E-05  0.164E-05
