# E (eV)  dos(E)    pdos(E)
  -3.448  0.900E-06  0.893E-06
  -3.428  0.217E-05  0.215E-05
  -3.408  0.502E-05  0.498E-05
  -3.388  0.112E-04  0.111E-04
  -3.368  0.238E-04  0.237E-04
  -3.348  0.489E-04  0.486E-04
  -3.328  0.966E-04  0.959E-04
  -3.308  0.184E-03  0.182E-03
  -3.288  0.336E-03  0.333E-03
  -3.268  0.591E-03  0.586E-03
  -3.248  0.100E-02  0.995E-03
  -3.228  0.164E-02  0.163E-02
  -3.208  0.259E-02  0.257E-02
  -3.188  0.396E-02  0.393E-02
  -3.168  0.584E-02  0.579E-02
  -3.148  0.833E-02  0.827E-02
  -3.128  0.115E-01  0.114E-01
  -3.108  0.154E-01  0.153E-01
  -3.088  0.201E-01  0.199E-01
  -3.068  0.254E-01  0.252E-01
  -3.048  0.313E-01  0.311E-01
  -3.028  0.377E-01  0.374E-01
  -3.008  0.443E-01  0.440E-01
  -2.988  0.511E-01  0.507E-01
  -2.968  0.579E-01  0.575E-01
  -2.948  0.647E-01  0.642E-01
  -2.928  0.712E-01  0.707E-01
  -2.908  0.775E-01  0.769E-01
  -2.888  0.834E-01  0.828E-01
  -2.868  0.889E-01  0.882E-01
  -2.848  0.939E-01  0.932E-01
  -2.828  0.984E-01  0.977E-01
  -2.808  0.103E+00  0.102E+00
  -2.788  0.106E+00  0.106E+00
  -2.768  0.110E+00  0.109E+00
  -2.748  0.114E+00  0.113E+00
  -2.728  0.118E+00  0.117E+00
  -2.708  0.123E+00  0.122E+00
  -2.688  0.127E+00  0.126E+00
  -2.668  0.132E+00  0.131E+00
  -2.648  0.136E+00  0.135E+00
  -2.628  0.139E+00  0.138E+00
  -2.608  0.142E+00  0.141E+00
  -2.588  0.144E+00  0.143E+00
  -2.568  0.145E+00  0.144E+00
  -2.548  0.146E+00  0.145E+00
  -2.528  0.147E+00  0.146E+00
  -2.508  0.149E+00  0.148E+00
  -2.488  0.152E+00  0.151E+00
  -2.468  0.156E+00  0.155E+00
  -2.448  0.161E+00  0.160E+00
  -2.428  0.166E+00  0.165E+00
  -2.408  0.171E+00  0.170E+00
  -2.388  0.176E+00  0.175E+00
  -2.368  0.180E+00  0.178E+00
  -2.348  0.182E+00  0.181E+00
  -2.328  0.184E+00  0.182E+00
  -2.308  0.184E+00  0.183E+00
  -2.288  0.184E+00  0.182E+00
  -2.268  0.183E+00  0.182E+00
  -2.248  0.182E+00  0.181E+00
  -2.228  0.182E+00  0.181E+00
  -2.208  0.183E+00  0.182E+00
  -2.188  0.185E+00  0.183E+00
  -2.168  0.188E+00  0.187E+00
  -2.148  0.192E+00  0.191E+00
  -2.128  0.198E+00  0.197E+00
  -2.108  0.204E+00  0.203E+00
  -2.088  0.210E+00  0.209E+00
  -2.068  0.216E+00  0.214E+00
  -2.048  0.220E+00  0.218E+00
  -2.028  0.222E+00  0.221E+00
  -2.008  0.223E+00  0.222E+00
  -1.988  0.223E+00  0.221E+00
  -1.968  0.221E+00  0.220E+00
  -1.948  0.220E+00  0.218E+00
  -1.928  0.219E+00  0.217E+00
  -1.908  0.218E+00  0.217E+00
  -1.888  0.219E+00  0.217E+00
  -1.868  0.220E+00  0.219E+00
  -1.848  0.222E+00  0.220E+00
  -1.828  0.224E+00  0.222E+00
  -1.808  0.226E+00  0.224E+00
  -1.788  0.228E+00  0.226E+00
  -1.768  0.230E+00  0.228E+00
  -1.748  0.233E+00  0.231E+00
  -1.728  0.236E+00  0.234E+00
  -1.708  0.241E+00  0.238E+00
  -1.688  0.245E+00  0.243E+00
  -1.668  0.250E+00  0.248E+00
  -1.648  0.255E+00  0.252E+00
  -1.628  0.259E+00  0.256E+00
  -1.608  0.262E+00  0.259E+00
  -1.588  0.264E+00  0.261E+00
  -1.568  0.264E+00  0.262E+00
  -1.548  0.265E+00  0.262E+00
  -1.528  0.265E+00  0.262E+00
  -1.508  0.264E+00  0.261E+00
  -1.488  0.264E+00  0.261E+00
  -1.468  0.263E+00  0.260E+00
  -1.448  0.263E+00  0.260E+00
  -1.428  0.262E+00  0.259E+00
  -1.408  0.261E+00  0.258E+00
  -1.388  0.260E+00  0.257E+00
  -1.368  0.260E+00  0.256E+00
  -1.348  0.260E+00  0.257E+00
  -1.328  0.261E+00  0.258E+00
  -1.308  0.264E+00  0.260E+00
  -1.288  0.267E+00  0.264E+00
  -1.268  0.272E+00  0.268E+00
  -1.248  0.277E+00  0.273E+00
  -1.228  0.283E+00  0.279E+00
  -1.208  0.288E+00  0.284E+00
  -1.188  0.294E+00  0.289E+00
  -1.168  0.299E+00  0.294E+00
  -1.148  0.303E+00  0.298E+00
  -1.128  0.306E+00  0.301E+00
  -1.108  0.308E+00  0.304E+00
  -1.088  0.310E+00  0.305E+00
  -1.068  0.310E+00  0.306E+00
  -1.048  0.311E+00  0.306E+00
  -1.028  0.311E+00  0.306E+00
  -1.008  0.311E+00  0.306E+00
  -0.988  0.311E+00  0.307E+00
  -0.968  0.312E+00  0.307E+00
  -0.948  0.311E+00  0.306E+00
  -0.928  0.310E+00  0.305E+00
  -0.908  0.307E+00  0.302E+00
  -0.888  0.303E+00  0.298E+00
  -0.868  0.297E+00  0.292E+00
  -0.848  0.291E+00  0.286E+00
  -0.828  0.285E+00  0.281E+00
  -0.808  0.282E+00  0.277E+00
  -0.788  0.281E+00  0.276E+00
  -0.768  0.285E+00  0.280E+00
  -0.748  0.292E+00  0.287E+00
  -0.728  0.303E+00  0.298E+00
  -0.708  0.317E+00  0.311E+00
  -0.688  0.331E+00  0.325E+00
  -0.668  0.345E+00  0.339E+00
  -0.648  0.357E+00  0.350E+00
  -0.628  0.366E+00  0.359E+00
  -0.608  0.372E+00  0.365E+00
  -0.588  0.375E+00  0.368E+00
  -0.568  0.376E+00  0.369E+00
  -0.548  0.374E+00  0.367E+00
  -0.528  0.370E+00  0.363E+00
  -0.508  0.365E+00  0.358E+00
  -0.488  0.359E+00  0.352E+00
  -0.468  0.353E+00  0.346E+00
  -0.448  0.347E+00  0.340E+00
  -0.428  0.342E+00  0.335E+00
  -0.408  0.338E+00  0.331E+00
  -0.388  0.337E+00  0.330E+00
  -0.368  0.337E+00  0.330E+00
  -0.348  0.338E+00  0.331E+00
  -0.328  0.339E+00  0.332E+00
  -0.308  0.340E+00  0.332E+00
  -0.288  0.339E+00  0.331E+00
  -0.268  0.336E+00  0.328E+00
  -0.248  0.332E+00  0.324E+00
  -0.228  0.328E+00  0.320E+00
  -0.208  0.325E+00  0.317E+00
  -0.188  0.325E+00  0.317E+00
  -0.168  0.329E+00  0.321E+00
  -0.148  0.338E+00  0.330E+00
  -0.128  0.352E+00  0.343E+00
  -0.108  0.370E+00  0.360E+00
  -0.088  0.390E+00  0.379E+00
  -0.068  0.410E+00  0.399E+00
  -0.048  0.429E+00  0.417E+00
  -0.028  0.444E+00  0.431E+00
  -0.008  0.454E+00  0.441E+00
   0.012  0.458E+00  0.445E+00
   0.032  0.458E+00  0.445E+00
   0.052  0.453E+00  0.440E+00
   0.072  0.445E+00  0.432E+00
   0.092  0.435E+00  0.422E+00
   0.112  0.423E+00  0.410E+00
   0.132  0.411E+00  0.398E+00
   0.152  0.400E+00  0.387E+00
   0.172  0.390E+00  0.377E+00
   0.192  0.381E+00  0.368E+00
   0.212  0.375E+00  0.361E+00
   0.232  0.372E+00  0.358E+00
   0.252  0.372E+00  0.357E+00
   0.272  0.374E+00  0.358E+00
   0.292  0.378E+00  0.361E+00
   0.312  0.383E+00  0.365E+00
   0.332  0.388E+00  0.369E+00
   0.352  0.392E+00  0.373E+00
   0.372  0.395E+00  0.375E+00
   0.392  0.397E+00  0.376E+00
   0.412  0.399E+00  0.378E+00
   0.432  0.402E+00  0.380E+00
   0.452  0.408E+00  0.384E+00
   0.472  0.417E+00  0.392E+00
   0.492  0.430E+00  0.403E+00
   0.512  0.446E+00  0.418E+00
   0.532  0.466E+00  0.436E+00
   0.552  0.488E+00  0.455E+00
   0.572  0.509E+00  0.475E+00
   0.592  0.529E+00  0.493E+00
   0.612  0.547E+00  0.508E+00
   0.632  0.561E+00  0.521E+00
   0.652  0.572E+00  0.529E+00
   0.672  0.580E+00  0.535E+00
   0.692  0.586E+00  0.538E+00
   0.712  0.589E+00  0.538E+00
   0.732  0.590E+00  0.537E+00
   0.752  0.589E+00  0.533E+00
   0.772  0.584E+00  0.527E+00
   0.792  0.577E+00  0.517E+00
   0.812  0.565E+00  0.505E+00
   0.832  0.550E+00  0.489E+00
   0.852  0.533E+00  0.473E+00
   0.872  0.515E+00  0.456E+00
   0.892  0.499E+00  0.441E+00
   0.912  0.485E+00  0.430E+00
   0.932  0.476E+00  0.423E+00
   0.952  0.472E+00  0.421E+00
   0.972  0.472E+00  0.423E+00
   0.992  0.474E+00  0.427E+00
   1.012  0.478E+00  0.433E+00
   1.032  0.481E+00  0.437E+00
   1.052  0.483E+00  0.440E+00
   1.072  0.485E+00  0.442E+00
   1.092  0.486E+00  0.445E+00
   1.112  0.489E+00  0.448E+00
   1.132  0.495E+00  0.454E+00
   1.152  0.505E+00  0.464E+00
   1.172  0.521E+00  0.479E+00
   1.192  0.540E+00  0.497E+00
   1.212  0.561E+00  0.517E+00
   1.232  0.582E+00  0.537E+00
   1.252  0.601E+00  0.555E+00
   1.272  0.614E+00  0.568E+00
   1.292  0.620E+00  0.573E+00
   1.312  0.618E+00  0.571E+00
   1.332  0.607E+00  0.562E+00
   1.352  0.590E+00  0.545E+00
   1.372  0.567E+00  0.524E+00
   1.392  0.541E+00  0.500E+00
   1.412  0.513E+00  0.474E+00
   1.432  0.487E+00  0.448E+00
   1.452  0.461E+00  0.424E+00
   1.472  0.438E+00  0.402E+00
   1.492  0.417E+00  0.382E+00
   1.512  0.397E+00  0.364E+00
   1.532  0.380E+00  0.347E+00
   1.552  0.364E+00  0.332E+00
   1.572  0.351E+00  0.319E+00
   1.592  0.339E+00  0.308E+00
   1.612  0.329E+00  0.299E+00
   1.632  0.321E+00  0.291E+00
   1.652  0.315E+00  0.285E+00
   1.672  0.310E+00  0.280E+00
   1.692  0.306E+00  0.277E+00
   1.712  0.304E+00  0.275E+00
   1.732  0.305E+00  0.275E+00
   1.752  0.308E+00  0.278E+00
   1.772  0.315E+00  0.283E+00
   1.792  0.326E+00  0.293E+00
   1.812  0.342E+00  0.306E+00
   1.832  0.362E+00  0.323E+00
   1.852  0.385E+00  0.343E+00
   1.872  0.410E+00  0.364E+00
   1.892  0.435E+00  0.385E+00
   1.912  0.457E+00  0.405E+00
   1.932  0.475E+00  0.420E+00
   1.952  0.488E+00  0.430E+00
   1.972  0.493E+00  0.434E+00
   1.992  0.491E+00  0.430E+00
   2.012  0.481E+00  0.421E+00
   2.032  0.465E+00  0.405E+00
   2.052  0.443E+00  0.385E+00
   2.072  0.418E+00  0.362E+00
   2.092  0.390E+00  0.336E+00
   2.112  0.361E+00  0.310E+00
   2.132  0.332E+00  0.284E+00
   2.152  0.303E+00  0.258E+00
   2.172  0.275E+00  0.233E+00
   2.192  0.248E+00  0.209E+00
   2.212  0.222E+00  0.187E+00
   2.232  0.198E+00  0.166E+00
   2.252  0.177E+00  0.147E+00
   2.272  0.160E+00  0.132E+00
   2.292  0.147E+00  0.119E+00
   2.312  0.139E+00  0.111E+00
   2.332  0.136E+00  0.107E+00
   2.352  0.137E+00  0.106E+00
   2.372  0.143E+00  0.109E+00
   2.392  0.151E+00  0.114E+00
   2.412  0.161E+00  0.121E+00
   2.432  0.172E+00  0.129E+00
   2.452  0.184E+00  0.138E+00
   2.472  0.198E+00  0.148E+00
   2.492  0.212E+00  0.159E+00
   2.512  0.229E+00  0.172E+00
   2.532  0.247E+00  0.186E+00
   2.552  0.268E+00  0.201E+00
   2.572  0.289E+00  0.217E+00
   2.592  0.310E+00  0.231E+00
   2.612  0.327E+00  0.244E+00
   2.632  0.340E+00  0.252E+00
   2.652  0.345E+00  0.255E+00
   2.672  0.342E+00  0.252E+00
   2.692  0.330E+00  0.242E+00
   2.712  0.311E+00  0.226E+00
   2.732  0.284E+00  0.206E+00
   2.752  0.253E+00  0.183E+00
   2.772  0.221E+00  0.158E+00
   2.792  0.188E+00  0.133E+00
   2.812  0.158E+00  0.111E+00
   2.832  0.132E+00  0.904E-01
   2.852  0.110E+00  0.736E-01
   2.872  0.934E-01  0.601E-01
   2.892  0.811E-01  0.499E-01
   2.912  0.727E-01  0.424E-01
   2.932  0.672E-01  0.372E-01
   2.952  0.639E-01  0.336E-01
   2.972  0.618E-01  0.311E-01
   2.992  0.604E-01  0.294E-01
   3.012  0.594E-01  0.280E-01
   3.032  0.585E-01  0.269E-01
   3.052  0.578E-01  0.260E-01
   3.072  0.573E-01  0.253E-01
   3.092  0.571E-01  0.250E-01
   3.112  0.577E-01  0.252E-01
   3.132  0.595E-01  0.262E-01
   3.152  0.630E-01  0.284E-01
   3.172  0.690E-01  0.321E-01
   3.192  0.782E-01  0.377E-01
   3.212  0.913E-01  0.455E-01
   3.232  0.109E+00  0.557E-01
   3.252  0.130E+00  0.682E-01
   3.272  0.155E+00  0.824E-01
   3.292  0.182E+00  0.975E-01
   3.312  0.209E+00  0.112E+00
   3.332  0.233E+00  0.125E+00
   3.352  0.253E+00  0.135E+00
   3.372  0.264E+00  0.141E+00
   3.392  0.268E+00  0.143E+00
   3.412  0.262E+00  0.139E+00
   3.432  0.249E+00  0.132E+00
   3.452  0.230E+00  0.121E+00
   3.472  0.208E+00  0.110E+00
   3.492  0.186E+00  0.980E-01
   3.512  0.166E+00  0.877E-01
   3.532  0.150E+00  0.797E-01
   3.552  0.138E+00  0.743E-01
   3.572  0.131E+00  0.714E-01
   3.592  0.128E+00  0.707E-01
   3.612  0.128E+00  0.717E-01
   3.632  0.130E+00  0.739E-01
   3.652  0.133E+00  0.773E-01
   3.672  0.138E+00  0.822E-01
   3.692  0.146E+00  0.894E-01
   3.712  0.158E+00  0.998E-01
   3.732  0.176E+00  0.115E+00
   3.752  0.202E+00  0.136E+00
   3.772  0.237E+00  0.163E+00
   3.792  0.282E+00  0.198E+00
   3.812  0.336E+00  0.240E+00
   3.832  0.398E+00  0.288E+00
   3.852  0.466E+00  0.341E+00
   3.872  0.536E+00  0.398E+00
   3.892  0.606E+00  0.454E+00
   3.912  0.672E+00  0.508E+00
   3.932  0.731E+00  0.558E+00
   3.952  0.781E+00  0.600E+00
   3.972  0.819E+00  0.633E+00
   3.992  0.845E+00  0.656E+00
   4.012  0.857E+00  0.667E+00
   4.032  0.857E+00  0.667E+00
   4.052  0.844E+00  0.655E+00
   4.072  0.820E+00  0.635E+00
   4.092  0.788E+00  0.606E+00
   4.112  0.749E+00  0.573E+00
   4.132  0.707E+00  0.538E+00
   4.152  0.667E+00  0.504E+00
   4.172  0.630E+00  0.475E+00
   4.192  0.602E+00  0.452E+00
   4.212  0.583E+00  0.438E+00
   4.232  0.575E+00  0.433E+00
   4.252  0.578E+00  0.436E+00
   4.272  0.589E+00  0.445E+00
   4.292  0.605E+00  0.458E+00
   4.312  0.622E+00  0.471E+00
   4.332  0.637E+00  0.482E+00
   4.352  0.646E+00  0.488E+00
   4.372  0.647E+00  0.487E+00
   4.392  0.638E+00  0.480E+00
   4.412  0.621E+00  0.465E+00
   4.432  0.597E+00  0.446E+00
   4.452  0.568E+00  0.423E+00
   4.472  0.537E+00  0.398E+00
   4.492  0.508E+00  0.374E+00
   4.512  0.481E+00  0.352E+00
   4.532  0.460E+00  0.335E+00
   4.552  0.445E+00  0.323E+00
   4.572  0.440E+00  0.318E+00
   4.592  0.444E+00  0.320E+00
   4.612  0.458E+00  0.329E+00
   4.632  0.480E+00  0.345E+00
   4.652  0.510E+00  0.367E+00
   4.672  0.544E+00  0.393E+00
   4.692  0.580E+00  0.419E+00
   4.712  0.613E+00  0.444E+00
   4.732  0.639E+00  0.464E+00
   4.752  0.657E+00  0.478E+00
   4.772  0.663E+00  0.483E+00
   4.792  0.658E+00  0.479E+00
   4.812  0.642E+00  0.468E+00
   4.832  0.618E+00  0.451E+00
   4.852  0.588E+00  0.429E+00
   4.872  0.554E+00  0.405E+00
   4.892  0.519E+00  0.379E+00
   4.912  0.485E+00  0.354E+00
   4.932  0.452E+00  0.331E+00
   4.952  0.420E+00  0.308E+00
   4.972  0.392E+00  0.287E+00
   4.992  0.365E+00  0.269E+00
   5.012  0.342E+00  0.252E+00
   5.032  0.322E+00  0.238E+00
   5.052  0.307E+00  0.228E+00
   5.072  0.298E+00  0.221E+00
   5.092  0.295E+00  0.219E+00
   5.112  0.300E+00  0.223E+00
   5.132  0.311E+00  0.232E+00
   5.152  0.331E+00  0.247E+00
   5.172  0.357E+00  0.266E+00
   5.192  0.388E+00  0.290E+00
   5.212  0.423E+00  0.316E+00
   5.232  0.461E+00  0.344E+00
   5.252  0.498E+00  0.372E+00
   5.272  0.532E+00  0.398E+00
   5.292  0.561E+00  0.420E+00
   5.312  0.583E+00  0.436E+00
   5.332  0.596E+00  0.446E+00
   5.352  0.599E+00  0.448E+00
   5.372  0.592E+00  0.443E+00
   5.392  0.576E+00  0.431E+00
   5.412  0.552E+00  0.414E+00
   5.432  0.524E+00  0.392E+00
   5.452  0.492E+00  0.369E+00
   5.472  0.461E+00  0.346E+00
   5.492  0.432E+00  0.325E+00
   5.512  0.407E+00  0.306E+00
   5.532  0.385E+00  0.291E+00
   5.552  0.368E+00  0.278E+00
   5.572  0.354E+00  0.268E+00
   5.592  0.342E+00  0.259E+00
   5.612  0.331E+00  0.252E+00
   5.632  0.321E+00  0.244E+00
   5.652  0.312E+00  0.237E+00
   5.672  0.303E+00  0.230E+00
   5.692  0.296E+00  0.224E+00
   5.712  0.291E+00  0.220E+00
   5.732  0.290E+00  0.220E+00
   5.752  0.295E+00  0.223E+00
   5.772  0.306E+00  0.231E+00
   5.792  0.323E+00  0.244E+00
   5.812  0.347E+00  0.262E+00
   5.832  0.375E+00  0.283E+00
   5.852  0.406E+00  0.305E+00
   5.872  0.436E+00  0.328E+00
   5.892  0.463E+00  0.347E+00
   5.912  0.483E+00  0.362E+00
   5.932  0.495E+00  0.370E+00
   5.952  0.497E+00  0.371E+00
   5.972  0.488E+00  0.364E+00
   5.992  0.471E+00  0.351E+00
   6.012  0.446E+00  0.332E+00
   6.032  0.418E+00  0.309E+00
   6.052  0.388E+00  0.287E+00
   6.072  0.361E+00  0.265E+00
   6.092  0.338E+00  0.248E+00
   6.112  0.323E+00  0.235E+00
   6.132  0.314E+00  0.228E+00
   6.152  0.313E+00  0.226E+00
   6.172  0.318E+00  0.229E+00
   6.192  0.326E+00  0.234E+00
   6.212  0.337E+00  0.242E+00
   6.232  0.349E+00  0.250E+00
   6.252  0.361E+00  0.258E+00
   6.272  0.372E+00  0.266E+00
   6.292  0.384E+00  0.275E+00
   6.312  0.397E+00  0.285E+00
   6.332  0.412E+00  0.296E+00
   6.352  0.430E+00  0.309E+00
   6.372  0.451E+00  0.325E+00
   6.392  0.475E+00  0.343E+00
   6.412  0.501E+00  0.362E+00
   6.432  0.527E+00  0.382E+00
   6.452  0.554E+00  0.401E+00
   6.472  0.578E+00  0.418E+00
   6.492  0.598E+00  0.433E+00
   6.512  0.613E+00  0.445E+00
   6.532  0.623E+00  0.452E+00
   6.552  0.627E+00  0.456E+00
   6.572  0.625E+00  0.455E+00
   6.592  0.617E+00  0.450E+00
   6.612  0.605E+00  0.443E+00
   6.632  0.589E+00  0.432E+00
   6.652  0.570E+00  0.419E+00
   6.672  0.548E+00  0.404E+00
   6.692  0.524E+00  0.388E+00
   6.712  0.499E+00  0.371E+00
   6.732  0.475E+00  0.355E+00
   6.752  0.454E+00  0.340E+00
   6.772  0.438E+00  0.330E+00
   6.792  0.428E+00  0.324E+00
   6.812  0.427E+00  0.323E+00
   6.832  0.434E+00  0.329E+00
   6.852  0.449E+00  0.341E+00
   6.872  0.471E+00  0.358E+00
   6.892  0.497E+00  0.378E+00
   6.912  0.527E+00  0.400E+00
   6.932  0.557E+00  0.422E+00
   6.952  0.586E+00  0.442E+00
   6.972  0.613E+00  0.461E+00
   6.992  0.639E+00  0.478E+00
   7.012  0.664E+00  0.493E+00
   7.032  0.688E+00  0.507E+00
   7.052  0.711E+00  0.520E+00
   7.072  0.735E+00  0.533E+00
   7.092  0.759E+00  0.545E+00
   7.112  0.782E+00  0.557E+00
   7.132  0.803E+00  0.567E+00
   7.152  0.819E+00  0.575E+00
   7.172  0.830E+00  0.579E+00
   7.192  0.833E+00  0.578E+00
   7.212  0.826E+00  0.571E+00
   7.232  0.810E+00  0.557E+00
   7.252  0.785E+00  0.537E+00
   7.272  0.752E+00  0.513E+00
   7.292  0.713E+00  0.485E+00
   7.312  0.672E+00  0.456E+00
   7.332  0.632E+00  0.428E+00
   7.352  0.595E+00  0.404E+00
   7.372  0.565E+00  0.384E+00
   7.392  0.542E+00  0.370E+00
   7.412  0.528E+00  0.361E+00
   7.432  0.521E+00  0.358E+00
   7.452  0.519E+00  0.358E+00
   7.472  0.521E+00  0.360E+00
   7.492  0.524E+00  0.362E+00
   7.512  0.526E+00  0.363E+00
   7.532  0.526E+00  0.361E+00
   7.552  0.524E+00  0.357E+00
   7.572  0.519E+00  0.350E+00
   7.592  0.514E+00  0.343E+00
   7.612  0.509E+00  0.336E+00
   7.632  0.506E+00  0.330E+00
   7.652  0.506E+00  0.327E+00
   7.672  0.510E+00  0.325E+00
   7.692  0.517E+00  0.327E+00
   7.712  0.527E+00  0.331E+00
   7.732  0.540E+00  0.337E+00
   7.752  0.555E+00  0.343E+00
   7.772  0.570E+00  0.351E+00
   7.792  0.587E+00  0.358E+00
   7.812  0.603E+00  0.365E+00
   7.832  0.618E+00  0.371E+00
   7.852  0.631E+00  0.376E+00
   7.872  0.643E+00  0.379E+00
   7.892  0.651E+00  0.381E+00
   7.912  0.656E+00  0.381E+00
   7.932  0.657E+00  0.379E+00
   7.952  0.653E+00  0.375E+00
   7.972  0.646E+00  0.368E+00
   7.992  0.635E+00  0.360E+00
   8.012  0.622E+00  0.350E+00
   8.032  0.609E+00  0.341E+00
   8.052  0.597E+00  0.333E+00
   8.072  0.588E+00  0.327E+00
   8.092  0.582E+00  0.323E+00
   8.112  0.580E+00  0.321E+00
   8.132  0.580E+00  0.322E+00
   8.152  0.581E+00  0.323E+00
   8.172  0.581E+00  0.324E+00
   8.192  0.579E+00  0.324E+00
   8.212  0.573E+00  0.321E+00
   8.232  0.561E+00  0.316E+00
   8.252  0.545E+00  0.307E+00
   8.272  0.525E+00  0.296E+00
   8.292  0.503E+00  0.282E+00
   8.312  0.480E+00  0.268E+00
   8.332  0.459E+00  0.254E+00
   8.352  0.440E+00  0.241E+00
   8.372  0.424E+00  0.230E+00
   8.392  0.412E+00  0.220E+00
   8.412  0.403E+00  0.213E+00
   8.432  0.397E+00  0.207E+00
   8.452  0.394E+00  0.203E+00
   8.472  0.394E+00  0.201E+00
   8.492  0.399E+00  0.202E+00
   8.512  0.409E+00  0.205E+00
   8.532  0.425E+00  0.210E+00
   8.552  0.446E+00  0.219E+00
   8.572  0.473E+00  0.230E+00
   8.592  0.503E+00  0.244E+00
   8.612  0.535E+00  0.258E+00
   8.632  0.565E+00  0.272E+00
   8.652  0.591E+00  0.284E+00
   8.672  0.610E+00  0.294E+00
   8.692  0.621E+00  0.300E+00
   8.712  0.623E+00  0.302E+00
   8.732  0.618E+00  0.301E+00
   8.752  0.607E+00  0.298E+00
   8.772  0.593E+00  0.293E+00
   8.792  0.579E+00  0.288E+00
   8.812  0.567E+00  0.283E+00
   8.832  0.558E+00  0.280E+00
   8.852  0.552E+00  0.278E+00
   8.872  0.548E+00  0.276E+00
   8.892  0.544E+00  0.274E+00
   8.912  0.537E+00  0.272E+00
   8.932  0.528E+00  0.267E+00
   8.952  0.514E+00  0.261E+00
   8.972  0.497E+00  0.254E+00
   8.992  0.479E+00  0.246E+00
   9.012  0.462E+00  0.239E+00
   9.032  0.449E+00  0.235E+00
   9.052  0.441E+00  0.233E+00
   9.072  0.440E+00  0.236E+00
   9.092  0.445E+00  0.242E+00
   9.112  0.456E+00  0.250E+00
   9.132  0.469E+00  0.260E+00
   9.152  0.482E+00  0.270E+00
   9.172  0.492E+00  0.278E+00
   9.192  0.498E+00  0.283E+00
   9.212  0.498E+00  0.285E+00
   9.232  0.495E+00  0.284E+00
   9.252  0.490E+00  0.281E+00
   9.272  0.486E+00  0.279E+00
   9.292  0.487E+00  0.278E+00
   9.312  0.495E+00  0.280E+00
   9.332  0.510E+00  0.286E+00
   9.352  0.533E+00  0.296E+00
   9.372  0.563E+00  0.310E+00
   9.392  0.596E+00  0.326E+00
   9.412  0.629E+00  0.344E+00
   9.432  0.658E+00  0.362E+00
   9.452  0.682E+00  0.377E+00
   9.472  0.699E+00  0.390E+00
   9.492  0.707E+00  0.398E+00
   9.512  0.708E+00  0.403E+00
   9.532  0.703E+00  0.404E+00
   9.552  0.693E+00  0.402E+00
   9.572  0.679E+00  0.397E+00
   9.592  0.664E+00  0.390E+00
   9.612  0.649E+00  0.382E+00
   9.632  0.634E+00  0.374E+00
   9.652  0.620E+00  0.366E+00
   9.672  0.607E+00  0.358E+00
   9.692  0.596E+00  0.351E+00
   9.712  0.586E+00  0.345E+00
   9.732  0.577E+00  0.340E+00
   9.752  0.570E+00  0.335E+00
   9.772  0.564E+00  0.332E+00
   9.792  0.559E+00  0.330E+00
   9.812  0.557E+00  0.329E+00
   9.832  0.557E+00  0.330E+00
   9.852  0.560E+00  0.332E+00
   9.872  0.566E+00  0.335E+00
   9.892  0.574E+00  0.339E+00
   9.912  0.583E+00  0.344E+00
   9.932  0.591E+00  0.349E+00
   9.952  0.597E+00  0.352E+00
   9.972  0.601E+00  0.354E+00
   9.992  0.601E+00  0.355E+00
  10.012  0.599E+00  0.354E+00
  10.032  0.597E+00  0.354E+00
  10.052  0.596E+00  0.354E+00
  10.072  0.598E+00  0.357E+00
  10.092  0.606E+00  0.362E+00
  10.112  0.620E+00  0.372E+00
  10.132  0.641E+00  0.385E+00
  10.152  0.668E+00  0.402E+00
  10.172  0.698E+00  0.420E+00
  10.192  0.729E+00  0.439E+00
  10.212  0.757E+00  0.455E+00
  10.232  0.778E+00  0.468E+00
  10.252  0.790E+00  0.476E+00
  10.272  0.792E+00  0.478E+00
  10.292  0.783E+00  0.473E+00
  10.312  0.764E+00  0.464E+00
  10.332  0.738E+00  0.450E+00
  10.352  0.708E+00  0.434E+00
  10.372  0.677E+00  0.417E+00
  10.392  0.646E+00  0.401E+00
  10.412  0.619E+00  0.386E+00
  10.432  0.597E+00  0.374E+00
  10.452  0.581E+00  0.365E+00
  10.472  0.570E+00  0.359E+00
  10.492  0.564E+00  0.355E+00
  10.512  0.561E+00  0.354E+00
  10.532  0.562E+00  0.354E+00
  10.552  0.563E+00  0.356E+00
  10.572  0.564E+00  0.357E+00
  10.592  0.564E+00  0.358E+00
  10.612  0.564E+00  0.359E+00
  10.632  0.562E+00  0.360E+00
  10.652  0.562E+00  0.362E+00
  10.672  0.562E+00  0.365E+00
  10.692  0.566E+00  0.370E+00
  10.712  0.572E+00  0.378E+00
  10.732  0.582E+00  0.388E+00
  10.752  0.596E+00  0.399E+00
  10.772  0.611E+00  0.411E+00
  10.792  0.628E+00  0.423E+00
  10.812  0.645E+00  0.434E+00
  10.832  0.662E+00  0.444E+00
  10.852  0.678E+00  0.453E+00
  10.872  0.693E+00  0.461E+00
  10.892  0.707E+00  0.469E+00
  10.912  0.721E+00  0.477E+00
  10.932  0.734E+00  0.486E+00
  10.952  0.747E+00  0.495E+00
  10.972  0.759E+00  0.505E+00
  10.992  0.769E+00  0.514E+00
  11.012  0.778E+00  0.523E+00
  11.032  0.782E+00  0.529E+00
  11.052  0.783E+00  0.532E+00
  11.072  0.780E+00  0.531E+00
  11.092  0.773E+00  0.527E+00
  11.112  0.763E+00  0.520E+00
  11.132  0.751E+00  0.510E+00
  11.152  0.738E+00  0.498E+00
  11.172  0.725E+00  0.486E+00
  11.192  0.713E+00  0.475E+00
  11.212  0.702E+00  0.465E+00
  11.232  0.692E+00  0.455E+00
  11.252  0.681E+00  0.447E+00
  11.272  0.669E+00  0.439E+00
  11.292  0.654E+00  0.429E+00
  11.312  0.636E+00  0.418E+00
  11.332  0.614E+00  0.405E+00
  11.352  0.588E+00  0.391E+00
  11.372  0.561E+00  0.375E+00
  11.392  0.534E+00  0.359E+00
  11.412  0.509E+00  0.344E+00
  11.432  0.489E+00  0.332E+00
  11.452  0.473E+00  0.323E+00
  11.472  0.463E+00  0.318E+00
  11.492  0.459E+00  0.317E+00
  11.512  0.459E+00  0.319E+00
  11.532  0.462E+00  0.323E+00
  11.552  0.465E+00  0.327E+00
  11.572  0.468E+00  0.330E+00
  11.592  0.469E+00  0.333E+00
  11.612  0.468E+00  0.333E+00
  11.632  0.466E+00  0.333E+00
  11.652  0.464E+00  0.332E+00
  11.672  0.463E+00  0.333E+00
  11.692  0.467E+00  0.336E+00
  11.712  0.477E+00  0.343E+00
  11.732  0.494E+00  0.354E+00
  11.752  0.519E+00  0.371E+00
  11.772  0.552E+00  0.393E+00
  11.792  0.592E+00  0.420E+00
  11.812  0.639E+00  0.451E+00
  11.832  0.690E+00  0.484E+00
  11.852  0.743E+00  0.518E+00
  11.872  0.796E+00  0.551E+00
  11.892  0.844E+00  0.580E+00
  11.912  0.887E+00  0.606E+00
  11.932  0.920E+00  0.624E+00
  11.952  0.941E+00  0.635E+00
  11.972  0.949E+00  0.638E+00
  11.992  0.943E+00  0.632E+00
  12.012  0.924E+00  0.619E+00
  12.032  0.893E+00  0.599E+00
  12.052  0.854E+00  0.573E+00
  12.072  0.810E+00  0.545E+00
  12.092  0.762E+00  0.515E+00
  12.112  0.715E+00  0.485E+00
  12.132  0.671E+00  0.457E+00
  12.152  0.632E+00  0.431E+00
  12.172  0.598E+00  0.408E+00
  12.192  0.572E+00  0.390E+00
  12.212  0.555E+00  0.378E+00
  12.232  0.545E+00  0.370E+00
  12.252  0.544E+00  0.369E+00
  12.272  0.550E+00  0.373E+00
  12.292  0.563E+00  0.382E+00
  12.312  0.581E+00  0.395E+00
  12.332  0.601E+00  0.409E+00
  12.352  0.623E+00  0.424E+00
  12.372  0.644E+00  0.438E+00
  12.392  0.664E+00  0.450E+00
  12.412  0.683E+00  0.462E+00
  12.432  0.703E+00  0.473E+00
  12.452  0.724E+00  0.485E+00
  12.472  0.749E+00  0.500E+00
  12.492  0.779E+00  0.519E+00
  12.512  0.815E+00  0.542E+00
  12.532  0.857E+00  0.571E+00
  12.552  0.904E+00  0.603E+00
  12.572  0.954E+00  0.639E+00
  12.592  0.101E+01  0.675E+00
  12.612  0.105E+01  0.711E+00
  12.632  0.110E+01  0.744E+00
  12.652  0.113E+01  0.772E+00
  12.672  0.116E+01  0.793E+00
  12.692  0.118E+01  0.807E+00
  12.712  0.119E+01  0.814E+00
  12.732  0.118E+01  0.813E+00
  12.752  0.117E+01  0.806E+00
  12.772  0.115E+01  0.795E+00
  12.792  0.113E+01  0.780E+00
  12.812  0.111E+01  0.763E+00
  12.832  0.108E+01  0.745E+00
  12.852  0.105E+01  0.727E+00
  12.872  0.103E+01  0.709E+00
  12.892  0.998E+00  0.691E+00
  12.912  0.969E+00  0.671E+00
  12.932  0.939E+00  0.651E+00
  12.952  0.907E+00  0.629E+00
  12.972  0.873E+00  0.605E+00
  12.992  0.839E+00  0.581E+00
  13.012  0.803E+00  0.556E+00
  13.032  0.769E+00  0.532E+00
  13.052  0.737E+00  0.509E+00
  13.072  0.709E+00  0.488E+00
  13.092  0.686E+00  0.470E+00
  13.112  0.669E+00  0.457E+00
  13.132  0.658E+00  0.447E+00
  13.152  0.654E+00  0.442E+00
  13.172  0.657E+00  0.442E+00
  13.192  0.665E+00  0.447E+00
  13.212  0.678E+00  0.456E+00
  13.232  0.696E+00  0.468E+00
  13.252  0.719E+00  0.484E+00
  13.272  0.745E+00  0.504E+00
  13.292  0.774E+00  0.525E+00
  13.312  0.805E+00  0.549E+00
  13.332  0.838E+00  0.573E+00
  13.352  0.869E+00  0.597E+00
  13.372  0.897E+00  0.619E+00
  13.392  0.919E+00  0.636E+00
  13.412  0.933E+00  0.648E+00
  13.432  0.937E+00  0.652E+00
  13.452  0.930E+00  0.649E+00
  13.472  0.913E+00  0.638E+00
  13.492  0.887E+00  0.621E+00
  13.512  0.854E+00  0.599E+00
  13.532  0.819E+00  0.574E+00
  13.552  0.782E+00  0.549E+00
  13.572  0.746E+00  0.524E+00
  13.592  0.712E+00  0.500E+00
  13.612  0.680E+00  0.477E+00
  13.632  0.649E+00  0.456E+00
  13.652  0.619E+00  0.435E+00
  13.672  0.589E+00  0.414E+00
  13.692  0.558E+00  0.392E+00
  13.712  0.527E+00  0.371E+00
  13.732  0.496E+00  0.350E+00
  13.752  0.467E+00  0.330E+00
  13.772  0.441E+00  0.313E+00
  13.792  0.420E+00  0.298E+00
  13.812  0.404E+00  0.288E+00
  13.832  0.394E+00  0.283E+00
  13.852  0.391E+00  0.282E+00
  13.872  0.393E+00  0.285E+00
  13.892  0.399E+00  0.291E+00
  13.912  0.408E+00  0.299E+00
  13.932  0.418E+00  0.308E+00
  13.952  0.427E+00  0.316E+00
  13.972  0.432E+00  0.320E+00
  13.992  0.433E+00  0.322E+00
  14.012  0.428E+00  0.319E+00
  14.032  0.418E+00  0.312E+00
  14.052  0.404E+00  0.302E+00
  14.072  0.387E+00  0.289E+00
  14.092  0.369E+00  0.276E+00
  14.112  0.352E+00  0.264E+00
  14.132  0.339E+00  0.254E+00
  14.152  0.329E+00  0.247E+00
  14.172  0.325E+00  0.244E+00
  14.192  0.326E+00  0.245E+00
  14.212  0.333E+00  0.250E+00
  14.232  0.344E+00  0.258E+00
  14.252  0.359E+00  0.269E+00
  14.272  0.377E+00  0.283E+00
  14.292  0.397E+00  0.298E+00
  14.312  0.418E+00  0.314E+00
  14.332  0.438E+00  0.330E+00
  14.352  0.455E+00  0.344E+00
  14.372  0.468E+00  0.354E+00
  14.392  0.475E+00  0.360E+00
  14.412  0.474E+00  0.361E+00
  14.432  0.466E+00  0.356E+00
  14.452  0.450E+00  0.345E+00
  14.472  0.428E+00  0.329E+00
  14.492  0.401E+00  0.310E+00
  14.512  0.372E+00  0.288E+00
  14.532  0.342E+00  0.267E+00
  14.552  0.315E+00  0.246E+00
  14.572  0.291E+00  0.228E+00
  14.592  0.271E+00  0.214E+00
  14.612  0.257E+00  0.203E+00
  14.632  0.248E+00  0.196E+00
  14.652  0.244E+00  0.194E+00
  14.672  0.246E+00  0.194E+00
  14.692  0.251E+00  0.199E+00
  14.712  0.261E+00  0.206E+00
  14.732  0.272E+00  0.215E+00
  14.752  0.286E+00  0.225E+00
  14.772  0.299E+00  0.235E+00
  14.792  0.311E+00  0.244E+00
  14.812  0.321E+00  0.251E+00
  14.832  0.327E+00  0.256E+00
  14.852  0.329E+00  0.257E+00
  14.872  0.327E+00  0.256E+00
  14.892  0.321E+00  0.252E+00
  14.912  0.313E+00  0.246E+00
  14.932  0.303E+00  0.238E+00
  14.952  0.293E+00  0.231E+00
  14.972  0.284E+00  0.224E+00
  14.992  0.276E+00  0.219E+00
  15.012  0.272E+00  0.216E+00
  15.032  0.271E+00  0.215E+00
  15.052  0.273E+00  0.217E+00
  15.072  0.277E+00  0.221E+00
  15.092  0.284E+00  0.226E+00
  15.112  0.292E+00  0.231E+00
  15.132  0.299E+00  0.236E+00
  15.152  0.305E+00  0.240E+00
  15.172  0.307E+00  0.242E+00
  15.192  0.308E+00  0.242E+00
  15.212  0.305E+00  0.239E+00
  15.232  0.301E+00  0.236E+00
  15.252  0.296E+00  0.232E+00
  15.272  0.292E+00  0.229E+00
  15.292  0.289E+00  0.227E+00
  15.312  0.288E+00  0.227E+00
  15.332  0.288E+00  0.228E+00
  15.352  0.290E+00  0.229E+00
  15.372  0.292E+00  0.231E+00
  15.392  0.293E+00  0.232E+00
  15.412  0.294E+00  0.233E+00
  15.432  0.294E+00  0.233E+00
  15.452  0.296E+00  0.234E+00
  15.472  0.299E+00  0.237E+00
  15.492  0.306E+00  0.241E+00
  15.512  0.318E+00  0.249E+00
  15.532  0.333E+00  0.260E+00
  15.552  0.352E+00  0.274E+00
  15.572  0.373E+00  0.289E+00
  15.592  0.391E+00  0.302E+00
  15.612  0.406E+00  0.312E+00
  15.632  0.413E+00  0.317E+00
  15.652  0.413E+00  0.316E+00
  15.672  0.405E+00  0.309E+00
  15.692  0.392E+00  0.299E+00
  15.712  0.376E+00  0.286E+00
  15.732  0.361E+00  0.275E+00
  15.752  0.350E+00  0.266E+00
  15.772  0.343E+00  0.262E+00
  15.792  0.343E+00  0.263E+00
  15.812  0.348E+00  0.268E+00
  15.832  0.357E+00  0.275E+00
  15.852  0.366E+00  0.282E+00
  15.872  0.375E+00  0.289E+00
  15.892  0.380E+00  0.293E+00
  15.912  0.382E+00  0.294E+00
  15.932  0.381E+00  0.292E+00
  15.952  0.379E+00  0.290E+00
  15.972  0.377E+00  0.287E+00
  15.992  0.378E+00  0.286E+00
  16.012  0.383E+00  0.288E+00
  16.032  0.392E+00  0.293E+00
  16.052  0.406E+00  0.302E+00
  16.072  0.423E+00  0.314E+00
  16.092  0.441E+00  0.327E+00
  16.112  0.460E+00  0.341E+00
  16.132  0.477E+00  0.354E+00
  16.152  0.493E+00  0.366E+00
  16.172  0.506E+00  0.377E+00
  16.192  0.518E+00  0.387E+00
  16.212  0.527E+00  0.394E+00
  16.232  0.534E+00  0.401E+00
  16.252  0.539E+00  0.406E+00
  16.272  0.542E+00  0.409E+00
  16.292  0.542E+00  0.409E+00
  16.312  0.539E+00  0.408E+00
  16.332  0.534E+00  0.405E+00
  16.352  0.527E+00  0.400E+00
  16.372  0.518E+00  0.394E+00
  16.392  0.509E+00  0.387E+00
  16.412  0.498E+00  0.379E+00
  16.432  0.486E+00  0.369E+00
  16.452  0.473E+00  0.358E+00
  16.472  0.457E+00  0.346E+00
  16.492  0.440E+00  0.332E+00
  16.512  0.419E+00  0.316E+00
  16.532  0.396E+00  0.297E+00
  16.552  0.371E+00  0.278E+00
  16.572  0.344E+00  0.257E+00
  16.592  0.317E+00  0.237E+00
  16.612  0.292E+00  0.217E+00
  16.632  0.269E+00  0.199E+00
  16.652  0.251E+00  0.184E+00
  16.672  0.237E+00  0.174E+00
  16.692  0.230E+00  0.167E+00
  16.712  0.228E+00  0.165E+00
  16.732  0.232E+00  0.166E+00
  16.752  0.239E+00  0.170E+00
  16.772  0.249E+00  0.176E+00
  16.792  0.260E+00  0.183E+00
  16.812  0.271E+00  0.189E+00
  16.832  0.282E+00  0.196E+00
  16.852  0.292E+00  0.201E+00
  16.872  0.301E+00  0.207E+00
  16.892  0.311E+00  0.212E+00
  16.912  0.321E+00  0.218E+00
  16.932  0.332E+00  0.225E+00
  16.952  0.344E+00  0.232E+00
  16.972  0.356E+00  0.240E+00
  16.992  0.368E+00  0.249E+00
  17.012  0.380E+00  0.258E+00
  17.032  0.391E+00  0.266E+00
  17.052  0.400E+00  0.273E+00
  17.072  0.405E+00  0.278E+00
  17.092  0.405E+00  0.279E+00
  17.112  0.401E+00  0.277E+00
  17.132  0.392E+00  0.271E+00
  17.152  0.377E+00  0.262E+00
  17.172  0.359E+00  0.249E+00
  17.192  0.338E+00  0.234E+00
  17.212  0.315E+00  0.218E+00
  17.232  0.293E+00  0.202E+00
  17.252  0.272E+00  0.188E+00
  17.272  0.254E+00  0.175E+00
  17.292  0.241E+00  0.166E+00
  17.312  0.232E+00  0.160E+00
  17.332  0.228E+00  0.158E+00
  17.352  0.228E+00  0.159E+00
  17.372  0.233E+00  0.163E+00
  17.392  0.240E+00  0.169E+00
  17.412  0.249E+00  0.175E+00
  17.432  0.259E+00  0.182E+00
  17.452  0.268E+00  0.189E+00
  17.472  0.276E+00  0.195E+00
  17.492  0.284E+00  0.200E+00
  17.512  0.290E+00  0.203E+00
  17.532  0.295E+00  0.206E+00
  17.552  0.299E+00  0.208E+00
  17.572  0.301E+00  0.209E+00
  17.592  0.301E+00  0.208E+00
  17.612  0.298E+00  0.206E+00
  17.632  0.293E+00  0.201E+00
  17.652  0.285E+00  0.195E+00
  17.672  0.275E+00  0.188E+00
  17.692  0.264E+00  0.179E+00
  17.712  0.252E+00  0.170E+00
  17.732  0.241E+00  0.162E+00
  17.752  0.232E+00  0.154E+00
  17.772  0.226E+00  0.150E+00
  17.792  0.224E+00  0.147E+00
  17.812  0.226E+00  0.147E+00
  17.832  0.230E+00  0.149E+00
  17.852  0.237E+00  0.153E+00
  17.872  0.244E+00  0.157E+00
  17.892  0.249E+00  0.160E+00
  17.912  0.253E+00  0.162E+00
  17.932  0.254E+00  0.162E+00
  17.952  0.251E+00  0.160E+00
  17.972  0.245E+00  0.157E+00
  17.992  0.238E+00  0.152E+00
  18.012  0.230E+00  0.146E+00
  18.032  0.221E+00  0.140E+00
  18.052  0.212E+00  0.135E+00
  18.072  0.205E+00  0.130E+00
  18.092  0.199E+00  0.126E+00
  18.112  0.194E+00  0.123E+00
  18.132  0.192E+00  0.121E+00
  18.152  0.193E+00  0.121E+00
  18.172  0.196E+00  0.123E+00
  18.192  0.204E+00  0.128E+00
  18.212  0.216E+00  0.134E+00
  18.232  0.231E+00  0.143E+00
  18.252  0.248E+00  0.153E+00
  18.272  0.266E+00  0.164E+00
  18.292  0.283E+00  0.173E+00
  18.312  0.297E+00  0.181E+00
  18.332  0.305E+00  0.185E+00
  18.352  0.307E+00  0.184E+00
  18.372  0.301E+00  0.179E+00
  18.392  0.287E+00  0.169E+00
  18.412  0.266E+00  0.156E+00
  18.432  0.240E+00  0.139E+00
  18.452  0.210E+00  0.121E+00
  18.472  0.179E+00  0.102E+00
  18.492  0.149E+00  0.842E-01
  18.512  0.121E+00  0.681E-01
  18.532  0.981E-01  0.547E-01
  18.552  0.806E-01  0.446E-01
  18.572  0.694E-01  0.382E-01
  18.592  0.647E-01  0.354E-01
  18.612  0.665E-01  0.361E-01
  18.632  0.741E-01  0.400E-01
  18.652  0.868E-01  0.465E-01
  18.672  0.104E+00  0.549E-01
  18.692  0.123E+00  0.647E-01
  18.712  0.144E+00  0.751E-01
  18.732  0.165E+00  0.854E-01
  18.752  0.186E+00  0.952E-01
  18.772  0.204E+00  0.104E+00
  18.792  0.221E+00  0.112E+00
  18.812  0.235E+00  0.118E+00
  18.832  0.246E+00  0.123E+00
  18.852  0.255E+00  0.127E+00
  18.872  0.260E+00  0.129E+00
  18.892  0.262E+00  0.130E+00
  18.912  0.261E+00  0.130E+00
  18.932  0.258E+00  0.128E+00
  18.952  0.252E+00  0.126E+00
  18.972  0.245E+00  0.122E+00
  18.992  0.236E+00  0.118E+00
  19.012  0.226E+00  0.113E+00
  19.032  0.216E+00  0.108E+00
  19.052  0.204E+00  0.102E+00
  19.072  0.191E+00  0.961E-01
  19.092  0.176E+00  0.889E-01
  19.112  0.160E+00  0.808E-01
  19.132  0.143E+00  0.720E-01
  19.152  0.125E+00  0.628E-01
  19.172  0.106E+00  0.535E-01
  19.192  0.887E-01  0.445E-01
  19.212  0.727E-01  0.363E-01
  19.232  0.591E-01  0.293E-01
  19.252  0.482E-01  0.237E-01
  19.272  0.403E-01  0.197E-01
  19.292  0.353E-01  0.171E-01
  19.312  0.327E-01  0.157E-01
  19.332  0.319E-01  0.152E-01
  19.352  0.324E-01  0.154E-01
  19.372  0.335E-01  0.158E-01
  19.392  0.346E-01  0.162E-01
  19.412  0.353E-01  0.165E-01
  19.432  0.357E-01  0.165E-01
  19.452  0.359E-01  0.164E-01
  19.472  0.363E-01  0.164E-01
  19.492  0.379E-01  0.167E-01
  19.512  0.415E-01  0.177E-01
  19.532  0.481E-01  0.199E-01
  19.552  0.583E-01  0.235E-01
  19.572  0.726E-01  0.287E-01
  19.592  0.910E-01  0.355E-01
  19.612  0.113E+00  0.436E-01
  19.632  0.137E+00  0.526E-01
  19.652  0.161E+00  0.617E-01
  19.672  0.184E+00  0.703E-01
  19.692  0.203E+00  0.774E-01
  19.712  0.216E+00  0.826E-01
  19.732  0.223E+00  0.853E-01
  19.752  0.223E+00  0.854E-01
  19.772  0.216E+00  0.832E-01
  19.792  0.205E+00  0.790E-01
  19.812  0.189E+00  0.736E-01
  19.832  0.172E+00  0.677E-01
  19.852  0.156E+00  0.618E-01
  19.872  0.140E+00  0.564E-01
  19.892  0.127E+00  0.519E-01
  19.912  0.117E+00  0.484E-01
  19.932  0.109E+00  0.460E-01
  19.952  0.105E+00  0.445E-01
  19.972  0.102E+00  0.439E-01
  19.992  0.100E+00  0.440E-01
  20.012  0.100E+00  0.444E-01
  20.032  0.100E+00  0.449E-01
  20.052  0.100E+00  0.452E-01
  20.072  0.992E-01  0.450E-01
  20.092  0.971E-01  0.442E-01
  20.112  0.936E-01  0.427E-01
  20.132  0.887E-01  0.405E-01
  20.152  0.829E-01  0.376E-01
  20.172  0.764E-01  0.345E-01
  20.192  0.697E-01  0.312E-01
  20.212  0.634E-01  0.281E-01
  20.232  0.579E-01  0.254E-01
  20.252  0.535E-01  0.234E-01
  20.272  0.506E-01  0.220E-01
  20.292  0.493E-01  0.215E-01
  20.312  0.500E-01  0.219E-01
  20.332  0.528E-01  0.231E-01
  20.352  0.576E-01  0.251E-01
  20.372  0.645E-01  0.279E-01
  20.392  0.730E-01  0.310E-01
  20.412  0.827E-01  0.344E-01
  20.432  0.927E-01  0.377E-01
  20.452  0.102E+00  0.405E-01
  20.472  0.110E+00  0.426E-01
  20.492  0.115E+00  0.437E-01
  20.512  0.118E+00  0.436E-01
  20.532  0.116E+00  0.423E-01
  20.552  0.112E+00  0.399E-01
  20.572  0.104E+00  0.366E-01
  20.592  0.935E-01  0.328E-01
  20.612  0.820E-01  0.287E-01
  20.632  0.703E-01  0.249E-01
  20.652  0.595E-01  0.217E-01
  20.672  0.506E-01  0.195E-01
  20.692  0.442E-01  0.184E-01
  20.712  0.405E-01  0.185E-01
  20.732  0.395E-01  0.197E-01
  20.752  0.407E-01  0.219E-01
  20.772  0.435E-01  0.246E-01
  20.792  0.472E-01  0.275E-01
  20.812  0.509E-01  0.301E-01
  20.832  0.542E-01  0.323E-01
  20.852  0.567E-01  0.338E-01
  20.872  0.586E-01  0.347E-01
  20.892  0.602E-01  0.354E-01
  20.912  0.622E-01  0.361E-01
  20.932  0.652E-01  0.373E-01
  20.952  0.700E-01  0.393E-01
  20.972  0.766E-01  0.423E-01
  20.992  0.849E-01  0.464E-01
  21.012  0.945E-01  0.511E-01
  21.032  0.104E+00  0.561E-01
  21.052  0.114E+00  0.607E-01
  21.072  0.121E+00  0.644E-01
  21.092  0.126E+00  0.666E-01
  21.112  0.127E+00  0.672E-01
  21.132  0.125E+00  0.659E-01
  21.152  0.120E+00  0.629E-01
  21.172  0.113E+00  0.586E-01
  21.192  0.103E+00  0.533E-01
  21.212  0.923E-01  0.475E-01
  21.232  0.815E-01  0.418E-01
  21.252  0.711E-01  0.366E-01
  21.272  0.619E-01  0.322E-01
  21.292  0.542E-01  0.287E-01
  21.312  0.481E-01  0.263E-01
  21.332  0.437E-01  0.248E-01
  21.352  0.407E-01  0.239E-01
  21.372  0.387E-01  0.236E-01
  21.392  0.374E-01  0.234E-01
  21.412  0.362E-01  0.231E-01
  21.432  0.347E-01  0.224E-01
  21.452  0.328E-01  0.213E-01
  21.472  0.303E-01  0.197E-01
  21.492  0.272E-01  0.177E-01
  21.512  0.239E-01  0.156E-01
  21.532  0.206E-01  0.134E-01
  21.552  0.178E-01  0.116E-01
  21.572  0.159E-01  0.103E-01
  21.592  0.151E-01  0.981E-02
  21.612  0.159E-01  0.103E-01
  21.632  0.183E-01  0.119E-01
  21.652  0.225E-01  0.147E-01
  21.672  0.283E-01  0.185E-01
  21.692  0.355E-01  0.233E-01
  21.712  0.437E-01  0.288E-01
  21.732  0.524E-01  0.347E-01
  21.752  0.609E-01  0.405E-01
  21.772  0.687E-01  0.460E-01
  21.792  0.751E-01  0.507E-01
  21.812  0.799E-01  0.543E-01
  21.832  0.825E-01  0.565E-01
  21.852  0.829E-01  0.573E-01
  21.872  0.810E-01  0.566E-01
  21.892  0.770E-01  0.544E-01
  21.912  0.713E-01  0.508E-01
  21.932  0.642E-01  0.462E-01
  21.952  0.563E-01  0.409E-01
  21.972  0.483E-01  0.354E-01
  21.992  0.407E-01  0.301E-01
  22.012  0.342E-01  0.255E-01
  22.032  0.292E-01  0.221E-01
  22.052  0.263E-01  0.201E-01
  22.072  0.255E-01  0.196E-01
  22.092  0.267E-01  0.208E-01
  22.112  0.299E-01  0.234E-01
  22.132  0.344E-01  0.271E-01
  22.152  0.397E-01  0.314E-01
  22.172  0.451E-01  0.358E-01
  22.192  0.499E-01  0.397E-01
  22.212  0.535E-01  0.428E-01
  22.232  0.554E-01  0.445E-01
  22.252  0.555E-01  0.448E-01
  22.272  0.538E-01  0.435E-01
  22.292  0.504E-01  0.410E-01
  22.312  0.458E-01  0.374E-01
  22.332  0.404E-01  0.332E-01
  22.352  0.347E-01  0.287E-01
  22.372  0.292E-01  0.242E-01
  22.392  0.241E-01  0.201E-01
  22.412  0.199E-01  0.166E-01
  22.432  0.166E-01  0.139E-01
  22.452  0.144E-01  0.121E-01
  22.472  0.134E-01  0.113E-01
  22.492  0.134E-01  0.113E-01
  22.512  0.145E-01  0.122E-01
  22.532  0.163E-01  0.138E-01
  22.552  0.186E-01  0.157E-01
  22.572  0.209E-01  0.177E-01
  22.592  0.230E-01  0.194E-01
  22.612  0.245E-01  0.206E-01
  22.632  0.251E-01  0.211E-01
  22.652  0.247E-01  0.208E-01
  22.672  0.234E-01  0.197E-01
  22.692  0.214E-01  0.180E-01
  22.712  0.189E-01  0.159E-01
  22.732  0.164E-01  0.138E-01
  22.752  0.143E-01  0.120E-01
  22.772  0.129E-01  0.109E-01
  22.792  0.126E-01  0.106E-01
  22.812  0.136E-01  0.115E-01
  22.832  0.160E-01  0.136E-01
  22.852  0.198E-01  0.167E-01
  22.872  0.247E-01  0.209E-01
  22.892  0.303E-01  0.257E-01
  22.912  0.362E-01  0.307E-01
  22.932  0.417E-01  0.354E-01
  22.952  0.462E-01  0.392E-01
  22.972  0.491E-01  0.416E-01
  22.992  0.500E-01  0.424E-01
  23.012  0.488E-01  0.414E-01
  23.032  0.458E-01  0.389E-01
  23.052  0.414E-01  0.351E-01
  23.072  0.360E-01  0.305E-01
  23.092  0.304E-01  0.258E-01
  23.112  0.251E-01  0.213E-01
  23.132  0.205E-01  0.174E-01
  23.152  0.169E-01  0.143E-01
  23.172  0.142E-01  0.120E-01
  23.192  0.123E-01  0.105E-01
  23.212  0.111E-01  0.942E-02
  23.232  0.102E-01  0.870E-02
  23.252  0.951E-02  0.811E-02
  23.272  0.880E-02  0.751E-02
  23.292  0.799E-02  0.681E-02
  23.312  0.704E-02  0.601E-02
  23.332  0.599E-02  0.511E-02
  23.352  0.491E-02  0.419E-02
  23.372  0.388E-02  0.331E-02
  23.392  0.295E-02  0.252E-02
  23.412  0.219E-02  0.187E-02
  23.432  0.162E-02  0.138E-02
  23.452  0.125E-02  0.107E-02
  23.472  0.109E-02  0.933E-03
  23.492  0.114E-02  0.977E-03
  23.512  0.139E-02  0.120E-02
  23.532  0.185E-02  0.160E-02
  23.552  0.252E-02  0.217E-02
  23.572  0.335E-02  0.290E-02
  23.592  0.433E-02  0.374E-02
  23.612  0.537E-02  0.464E-02
  23.632  0.641E-02  0.554E-02
  23.652  0.734E-02  0.634E-02
  23.672  0.808E-02  0.698E-02
  23.692  0.858E-02  0.742E-02
  23.712  0.883E-02  0.763E-02
  23.732  0.885E-02  0.764E-02
  23.752  0.874E-02  0.754E-02
  23.772  0.860E-02  0.742E-02
  23.792  0.857E-02  0.738E-02
  23.812  0.874E-02  0.752E-02
  23.832  0.916E-02  0.787E-02
  23.852  0.983E-02  0.844E-02
  23.872  0.107E-01  0.915E-02
  23.892  0.115E-01  0.988E-02
  23.912  0.123E-01  0.105E-01
  23.932  0.127E-01  0.109E-01
  23.952  0.127E-01  0.109E-01
  23.972  0.123E-01  0.105E-01
  23.992  0.114E-01  0.979E-02
  24.012  0.102E-01  0.873E-02
  24.032  0.872E-02  0.747E-02
  24.052  0.715E-02  0.612E-02
  24.072  0.561E-02  0.481E-02
  24.092  0.422E-02  0.362E-02
  24.112  0.304E-02  0.261E-02
  24.132  0.210E-02  0.180E-02
  24.152  0.139E-02  0.119E-02
  24.172  0.880E-03  0.754E-03
  24.192  0.534E-03  0.457E-03
  24.212  0.310E-03  0.266E-03
  24.232  0.172E-03  0.148E-03
  24.252  0.919E-04  0.787E-04
  24.272  0.469E-04  0.401E-04
  24.292  0.229E-04  0.196E-04
  24.312  0.107E-04  0.918E-05
  24.332  0.480E-05  0.411E-05
  24.352  0.206E-05  0.177E-05
  24.372  0.847E-06  0.726E-06
